%OpenBCI Raw EEG Data
%Number of channels = 8
%Sample Rate = 250.0 Hz
%First Column = SampleIndex
%Last Column = Timestamp 
%Other Columns = EEG data in microvolts followed by Accel Data (in G) interleaved with Aux Data
0, 0.00, 0.00, 0.00, 0.00, 0.00, 0.00, 0.00, 0.00, 0.048, 0.000, 1.040, 14:18:06.592, 1547011086592
1, -7156.72, -7091.31, -7051.19, -7193.28, -149439.78, -118341.89, -141379.81, -145140.88, 0.000, 0.000, 0.000, 14:18:07.076, 1547011087076
2, -7156.22, -7090.80, -7050.70, -7192.88, -149439.31, -118341.51, -141379.39, -145140.47, 0.000, 0.000, 0.000, 14:18:07.077, 1547011087077
3, -7155.53, -7090.20, -7050.05, -7192.23, -149438.70, -118340.93, -141378.94, -145140.02, 0.000, 0.000, 0.000, 14:18:07.078, 1547011087078
4, -7154.55, -7089.19, -7048.91, -7191.16, -149437.61, -118339.88, -141377.73, -145138.91, 0.000, 0.000, 0.000, 14:18:07.079, 1547011087079
5, -7156.29, -7090.84, -7050.68, -7192.72, -149439.27, -118341.62, -141379.30, -145140.44, 0.000, 0.000, 0.000, 14:18:07.080, 1547011087080
6, -7156.11, -7090.67, -7050.63, -7192.61, -149439.16, -118341.27, -141379.14, -145140.22, 0.000, 0.000, 0.000, 14:18:07.080, 1547011087080
7, -7156.78, -7091.34, -7051.19, -7193.24, -149439.69, -118341.84, -141379.73, -145140.73, 0.048, 0.002, 1.046, 14:18:07.080, 1547011087080
8, -7157.97, -7092.50, -7052.27, -7194.38, -149440.88, -118343.09, -141381.00, -145142.05, 0.000, 0.000, 0.000, 14:18:07.081, 1547011087081
9, -7157.52, -7092.01, -7051.84, -7193.91, -149440.42, -118342.58, -141380.50, -145141.47, 0.000, 0.000, 0.000, 14:18:07.081, 1547011087081
10, -7156.78, -7091.31, -7051.10, -7193.24, -149439.63, -118341.77, -141379.66, -145140.59, 0.000, 0.000, 0.000, 14:18:07.082, 1547011087082
11, -7155.78, -7090.40, -7050.25, -7192.32, -149438.53, -118340.66, -141378.58, -145139.45, 0.000, 0.000, 0.000, 14:18:07.082, 1547011087082
12, -7156.02, -7090.44, -7050.43, -7192.50, -149438.89, -118340.97, -141378.89, -145139.75, 0.000, 0.000, 0.000, 14:18:07.082, 1547011087082
13, -7156.51, -7090.98, -7050.92, -7192.97, -149439.53, -118341.71, -141379.55, -145140.48, 0.000, 0.000, 0.000, 14:18:07.082, 1547011087082
14, -7156.38, -7091.00, -7050.83, -7192.88, -149439.33, -118341.58, -141379.39, -145140.36, 0.000, 0.000, 0.000, 14:18:07.082, 1547011087082
15, -7157.10, -7091.72, -7051.57, -7193.60, -149440.00, -118342.24, -141380.08, -145140.95, 0.000, 0.000, 0.000, 14:18:07.082, 1547011087082
16, -7156.31, -7090.84, -7050.72, -7192.70, -149439.16, -118341.28, -141379.16, -145140.02, 0.000, 0.000, 0.000, 14:18:07.082, 1547011087082
17, -7154.73, -7089.39, -7049.23, -7191.23, -149437.59, -118339.72, -141377.64, -145138.52, 0.044, 0.004, 1.046, 14:18:07.083, 1547011087083
18, -7157.30, -7092.01, -7051.80, -7193.82, -149440.36, -118342.45, -141380.44, -145141.31, 0.000, 0.000, 0.000, 14:18:07.083, 1547011087083
19, -7157.39, -7092.01, -7051.91, -7193.93, -149440.39, -118342.60, -141380.52, -145141.42, 0.000, 0.000, 0.000, 14:18:07.084, 1547011087084
20, -7156.92, -7091.54, -7051.44, -7193.44, -149439.88, -118342.05, -141380.02, -145140.88, 0.000, 0.000, 0.000, 14:18:07.091, 1547011087091
21, -7156.22, -7090.89, -7050.79, -7192.81, -149439.27, -118341.33, -141379.27, -145140.13, 0.000, 0.000, 0.000, 14:18:07.091, 1547011087091
22, -7156.80, -7091.47, -7051.35, -7193.33, -149439.75, -118341.84, -141379.73, -145140.58, 0.000, 0.000, 0.000, 14:18:07.091, 1547011087091
23, -7158.39, -7093.04, -7052.94, -7194.94, -149441.45, -118343.59, -141381.50, -145142.44, 0.000, 0.000, 0.000, 14:18:07.092, 1547011087092
24, -7158.84, -7093.59, -7053.47, -7195.50, -149442.02, -118344.15, -141382.06, -145142.97, 0.000, 0.000, 0.000, 14:18:07.092, 1547011087092
25, -7157.74, -7092.50, -7052.38, -7194.36, -149440.89, -118342.88, -141380.83, -145141.77, 0.000, 0.000, 0.000, 14:18:07.092, 1547011087092
26, -7157.25, -7092.01, -7051.95, -7193.84, -149440.31, -118342.23, -141380.20, -145141.03, 0.000, 0.000, 0.000, 14:18:07.092, 1547011087092
27, -7157.39, -7092.19, -7052.02, -7193.91, -149440.41, -118342.34, -141380.33, -145141.14, 0.046, -0.002, 1.040, 14:18:07.092, 1547011087092
28, -7159.87, -7094.76, -7054.52, -7196.41, -149442.91, -118345.06, -141383.03, -145143.86, 0.000, 0.000, 0.000, 14:18:07.092, 1547011087092
29, -7159.31, -7094.15, -7053.90, -7195.92, -149442.34, -118344.50, -141382.53, -145143.28, 0.000, 0.000, 0.000, 14:18:07.092, 1547011087092
30, -7157.52, -7092.23, -7052.13, -7194.13, -149440.45, -118342.58, -141380.56, -145141.45, 0.000, 0.000, 0.000, 14:18:07.093, 1547011087093
31, -7155.71, -7090.29, -7050.41, -7192.30, -149438.55, -118340.66, -141378.56, -145139.45, 0.000, 0.000, 0.000, 14:18:07.093, 1547011087093
32, -7152.83, -7087.36, -7047.50, -7189.24, -149435.58, -118337.71, -141375.52, -145136.38, 0.000, 0.000, 0.000, 14:18:07.093, 1547011087093
33, -7154.44, -7089.06, -7049.11, -7191.03, -149437.30, -118339.56, -141377.39, -145138.25, 0.000, 0.000, 0.000, 14:18:07.093, 1547011087093
34, -7155.71, -7090.42, -7050.52, -7192.39, -149438.75, -118340.88, -141378.84, -145139.66, 0.000, 0.000, 0.000, 14:18:07.093, 1547011087093
35, -7155.55, -7090.26, -7050.39, -7192.25, -149438.69, -118340.75, -141378.75, -145139.42, 0.000, 0.000, 0.000, 14:18:07.093, 1547011087093
36, -7153.94, -7088.56, -7048.71, -7190.56, -149436.98, -118339.02, -141376.98, -145137.67, 0.000, 0.000, 0.000, 14:18:07.093, 1547011087093
37, -7155.15, -7089.79, -7049.94, -7191.70, -149438.11, -118340.14, -141378.05, -145138.83, 0.050, 0.000, 1.032, 14:18:07.094, 1547011087094
38, -7156.16, -7090.84, -7050.99, -7192.81, -149439.22, -118341.27, -141379.25, -145140.06, 0.000, 0.000, 0.000, 14:18:07.094, 1547011087094
39, -7155.06, -7089.68, -7049.76, -7191.67, -149438.17, -118340.30, -141378.16, -145138.95, 0.000, 0.000, 0.000, 14:18:07.094, 1547011087094
40, -7156.83, -7091.40, -7051.55, -7193.44, -149439.89, -118342.07, -141379.88, -145140.58, 0.000, 0.000, 0.000, 14:18:07.094, 1547011087094
41, -7158.19, -7092.70, -7053.00, -7194.67, -149441.14, -118343.19, -141381.19, -145141.73, 0.000, 0.000, 0.000, 14:18:07.094, 1547011087094
42, -7159.53, -7094.04, -7054.37, -7195.96, -149442.44, -118344.46, -141382.47, -145143.03, 0.000, 0.000, 0.000, 14:18:07.094, 1547011087094
43, -7161.41, -7096.03, -7056.20, -7197.98, -149444.47, -118346.60, -141384.59, -145145.27, 0.000, 0.000, 0.000, 14:18:07.094, 1547011087094
44, -7161.41, -7095.94, -7056.18, -7197.89, -149444.47, -118346.56, -141384.53, -145145.25, 0.000, 0.000, 0.000, 14:18:07.095, 1547011087095
45, -7158.66, -7093.12, -7053.36, -7195.07, -149441.55, -118343.66, -141381.53, -145142.33, 0.000, 0.000, 0.000, 14:18:07.095, 1547011087095
46, -7158.46, -7092.97, -7053.16, -7194.91, -149441.30, -118343.48, -141381.47, -145142.14, 0.000, 0.000, 0.000, 14:18:07.095, 1547011087095
47, -7157.34, -7091.83, -7052.04, -7193.71, -149440.14, -118342.18, -141380.25, -145140.91, 0.050, -0.002, 1.036, 14:18:07.095, 1547011087095
48, -7157.70, -7092.28, -7052.40, -7194.11, -149440.61, -118342.70, -141380.70, -145141.47, 0.000, 0.000, 0.000, 14:18:07.095, 1547011087095
49, -7156.85, -7091.45, -7051.57, -7193.35, -149439.67, -118341.84, -141379.86, -145140.64, 0.000, 0.000, 0.000, 14:18:07.095, 1547011087095
50, -7157.27, -7091.96, -7052.13, -7193.82, -149440.27, -118342.34, -141380.34, -145141.06, 0.000, 0.000, 0.000, 14:18:07.095, 1547011087095
51, -7157.07, -7091.74, -7051.91, -7193.60, -149439.94, -118342.00, -141379.92, -145140.59, 0.000, 0.000, 0.000, 14:18:07.096, 1547011087096
52, -7154.15, -7088.61, -7048.94, -7190.58, -149437.14, -118339.07, -141376.95, -145137.72, 0.000, 0.000, 0.000, 14:18:07.096, 1547011087096
53, -7152.83, -7087.45, -7047.57, -7189.28, -149435.94, -118337.93, -141375.83, -145136.58, 0.000, 0.000, 0.000, 14:18:07.096, 1547011087096
54, -7155.84, -7090.40, -7050.59, -7192.28, -149439.00, -118340.95, -141378.89, -145139.64, 0.000, 0.000, 0.000, 14:18:07.096, 1547011087096
55, -7156.49, -7090.98, -7051.22, -7192.95, -149439.64, -118341.55, -141379.50, -145140.27, 0.000, 0.000, 0.000, 14:18:07.097, 1547011087097
56, -7154.73, -7089.26, -7049.58, -7191.25, -149437.88, -118339.79, -141377.69, -145138.41, 0.000, 0.000, 0.000, 14:18:07.097, 1547011087097
57, -7156.18, -7090.73, -7050.97, -7192.61, -149439.17, -118341.06, -141379.03, -145139.69, 0.048, 0.002, 1.040, 14:18:07.097, 1547011087097
58, -7156.02, -7090.60, -7050.79, -7192.61, -149439.17, -118341.20, -141379.20, -145139.94, 0.000, 0.000, 0.000, 14:18:07.097, 1547011087097
59, -7157.16, -7091.81, -7052.00, -7193.86, -149440.42, -118342.38, -141380.41, -145141.22, 0.000, 0.000, 0.000, 14:18:07.097, 1547011087097
60, -7156.63, -7091.22, -7051.39, -7193.31, -149439.72, -118341.73, -141379.72, -145140.53, 0.000, 0.000, 0.000, 14:18:07.097, 1547011087097
61, -7157.63, -7092.25, -7052.56, -7194.27, -149440.73, -118342.80, -141380.80, -145141.52, 0.000, 0.000, 0.000, 14:18:07.098, 1547011087098
62, -7155.53, -7090.04, -7050.34, -7192.03, -149438.61, -118340.62, -141378.63, -145139.28, 0.000, 0.000, 0.000, 14:18:07.098, 1547011087098
63, -7156.00, -7090.62, -7050.83, -7192.63, -149439.20, -118341.24, -141379.27, -145139.97, 0.000, 0.000, 0.000, 14:18:07.098, 1547011087098
64, -7157.39, -7092.07, -7052.31, -7194.11, -149440.73, -118342.72, -141380.77, -145141.42, 0.000, 0.000, 0.000, 14:18:07.098, 1547011087098
65, -7157.68, -7092.36, -7052.58, -7194.45, -149441.08, -118343.07, -141381.00, -145141.70, 0.000, 0.000, 0.000, 14:18:07.098, 1547011087098
66, -7159.40, -7094.04, -7054.25, -7196.08, -149442.78, -118344.66, -141382.56, -145143.38, 0.044, 0.000, 1.040, 14:18:07.098, 1547011087098
67, -7159.89, -7094.53, -7054.79, -7196.55, -149443.25, -118345.04, -141382.98, -145143.78, 0.000, 0.000, 0.000, 14:18:07.098, 1547011087098
68, -7160.63, -7095.40, -7055.55, -7197.40, -149444.16, -118346.02, -141384.03, -145144.73, 0.000, 0.000, 0.000, 14:18:07.099, 1547011087099
69, -7160.02, -7094.80, -7054.90, -7196.70, -149443.52, -118345.40, -141383.36, -145144.11, 0.000, 0.000, 0.000, 14:18:07.099, 1547011087099
70, -7159.49, -7094.20, -7054.34, -7196.17, -149442.78, -118344.73, -141382.80, -145143.38, 0.000, 0.000, 0.000, 14:18:07.100, 1547011087100
71, -7157.21, -7091.92, -7052.02, -7193.86, -149440.58, -118342.42, -141380.44, -145141.05, 0.000, 0.000, 0.000, 14:18:07.100, 1547011087100
72, -7157.05, -7091.78, -7051.82, -7193.69, -149440.41, -118342.27, -141380.13, -145140.75, 0.000, 0.000, 0.000, 14:18:07.100, 1547011087100
73, -7156.72, -7091.56, -7051.55, -7193.60, -149440.30, -118342.20, -141380.23, -145140.75, 0.000, 0.000, 0.000, 14:18:07.100, 1547011087100
74, -7158.28, -7093.19, -7053.12, -7195.21, -149441.91, -118343.79, -141381.91, -145142.48, 0.000, 0.000, 0.000, 14:18:07.100, 1547011087100
75, -7156.63, -7091.45, -7051.51, -7193.51, -149440.11, -118342.07, -141380.17, -145140.69, 0.000, 0.000, 0.000, 14:18:07.100, 1547011087100
76, -7155.73, -7090.51, -7050.66, -7192.50, -149439.17, -118341.04, -141379.20, -145139.69, 0.042, -0.004, 1.042, 14:18:07.100, 1547011087100
77, -7155.64, -7090.46, -7050.52, -7192.30, -149438.97, -118340.84, -141378.98, -145139.44, 0.000, 0.000, 0.000, 14:18:07.101, 1547011087101
78, -7159.08, -7093.91, -7054.01, -7195.94, -149442.63, -118344.52, -141382.67, -145143.22, 0.000, 0.000, 0.000, 14:18:07.101, 1547011087101
79, -7157.77, -7092.54, -7052.65, -7194.62, -149441.30, -118343.16, -141381.31, -145141.92, 0.000, 0.000, 0.000, 14:18:07.101, 1547011087101
80, -7157.43, -7092.30, -7052.31, -7194.33, -149441.02, -118342.80, -141380.91, -145141.58, 0.000, 0.000, 0.000, 14:18:07.101, 1547011087101
81, -7155.17, -7090.02, -7050.14, -7192.10, -149438.70, -118340.48, -141378.56, -145139.17, 0.000, 0.000, 0.000, 14:18:07.101, 1547011087101
82, -7155.62, -7090.38, -7050.50, -7192.46, -149439.05, -118340.84, -141378.83, -145139.33, 0.000, 0.000, 0.000, 14:18:07.101, 1547011087101
83, -7158.26, -7093.01, -7053.14, -7195.16, -149441.80, -118343.68, -141381.59, -145142.25, 0.000, 0.000, 0.000, 14:18:07.101, 1547011087101
84, -7156.18, -7090.98, -7051.10, -7193.04, -149439.75, -118341.59, -141379.61, -145140.20, 0.000, 0.000, 0.000, 14:18:07.102, 1547011087102
85, -7153.92, -7088.72, -7048.91, -7190.82, -149437.39, -118339.27, -141377.38, -145137.84, 0.000, 0.000, 0.000, 14:18:07.102, 1547011087102
86, -7154.28, -7089.06, -7049.20, -7191.14, -149437.75, -118339.56, -141377.59, -145138.05, 0.042, -0.004, 1.046, 14:18:07.102, 1547011087102
87, -7156.56, -7091.29, -7051.46, -7193.39, -149439.95, -118341.73, -141379.83, -145140.28, 0.000, 0.000, 0.000, 14:18:07.102, 1547011087102
88, -7157.86, -7092.57, -7052.67, -7194.74, -149441.33, -118343.25, -141381.17, -145141.77, 0.000, 0.000, 0.000, 14:18:07.102, 1547011087102
89, -7156.34, -7091.16, -7051.28, -7193.37, -149439.88, -118341.89, -141379.77, -145140.28, 0.000, 0.000, 0.000, 14:18:07.102, 1547011087102
90, -7156.40, -7091.29, -7051.33, -7193.42, -149439.98, -118341.73, -141379.86, -145140.33, 0.000, 0.000, 0.000, 14:18:07.106, 1547011087106
91, -7157.27, -7092.14, -7052.09, -7194.22, -149440.77, -118342.45, -141380.56, -145140.91, 0.000, 0.000, 0.000, 14:18:07.163, 1547011087163
92, -7158.08, -7092.72, -7052.73, -7194.78, -149441.17, -118343.01, -141381.03, -145141.36, 0.000, 0.000, 0.000, 14:18:07.163, 1547011087163
93, -7158.68, -7093.39, -7053.34, -7195.43, -149442.02, -118343.92, -141381.86, -145142.30, 0.000, 0.000, 0.000, 14:18:07.163, 1547011087163
94, -7159.15, -7093.95, -7053.94, -7195.96, -149442.53, -118344.39, -141382.31, -145142.77, 0.000, 0.000, 0.000, 14:18:07.163, 1547011087163
95, -7158.64, -7093.42, -7053.50, -7195.52, -149442.02, -118343.85, -141381.73, -145142.25, 0.000, 0.000, 0.000, 14:18:07.164, 1547011087164
96, -7157.18, -7091.92, -7052.00, -7194.06, -149440.56, -118342.40, -141380.33, -145140.64, 0.038, -0.002, 1.042, 14:18:07.164, 1547011087164
97, -7157.83, -7092.57, -7052.62, -7194.56, -149441.08, -118342.80, -141380.77, -145141.06, 0.000, 0.000, 0.000, 14:18:07.165, 1547011087165
98, -7159.35, -7094.09, -7054.08, -7196.08, -149442.63, -118344.52, -141382.38, -145142.83, 0.000, 0.000, 0.000, 14:18:07.165, 1547011087165
99, -7160.36, -7095.09, -7055.15, -7197.17, -149443.63, -118345.60, -141383.39, -145143.89, 0.000, 0.000, 0.000, 14:18:07.166, 1547011087166
100, -7158.88, -7093.62, -7053.67, -7195.72, -149442.11, -118344.01, -141381.80, -145142.30, 0.000, 0.000, 0.000, 14:18:07.166, 1547011087166
101, -7159.22, -7093.82, -7053.96, -7195.94, -149442.28, -118344.15, -141381.91, -145142.33, 0.000, 0.000, 0.000, 14:18:07.166, 1547011087166
102, -7160.49, -7095.16, -7055.24, -7197.13, -149443.47, -118345.30, -141382.98, -145143.44, 0.000, 0.000, 0.000, 14:18:07.167, 1547011087167
103, -7159.58, -7094.26, -7054.30, -7196.19, -149442.53, -118344.41, -141382.25, -145142.67, 0.000, 0.000, 0.000, 14:18:07.167, 1547011087167
104, -7159.62, -7094.31, -7054.37, -7196.30, -149442.58, -118344.46, -141382.25, -145142.70, 0.000, 0.000, 0.000, 14:18:07.167, 1547011087167
105, -7161.36, -7096.05, -7056.15, -7198.16, -149444.25, -118346.25, -141383.94, -145144.31, 0.000, 0.000, 0.000, 14:18:07.167, 1547011087167
106, -7162.33, -7097.06, -7057.09, -7199.00, -149445.28, -118347.14, -141384.88, -145145.11, 0.040, 0.002, 1.044, 14:18:07.167, 1547011087167
107, -7161.05, -7095.70, -7055.75, -7197.46, -149443.84, -118345.69, -141383.39, -145143.66, 0.000, 0.000, 0.000, 14:18:07.168, 1547011087168
108, -7160.20, -7094.87, -7054.93, -7196.68, -149443.22, -118345.04, -141382.80, -145143.13, 0.000, 0.000, 0.000, 14:18:07.168, 1547011087168
109, -7159.53, -7094.29, -7054.19, -7196.08, -149442.50, -118344.37, -141382.13, -145142.48, 0.000, 0.000, 0.000, 14:18:07.168, 1547011087168
110, -7158.62, -7093.26, -7053.25, -7195.05, -149441.33, -118343.16, -141380.95, -145141.38, 0.000, 0.000, 0.000, 14:18:07.168, 1547011087168
111, -7158.41, -7093.28, -7053.23, -7194.98, -149440.88, -118342.83, -141380.45, -145140.88, 0.000, 0.000, 0.000, 14:18:07.168, 1547011087168
112, -7158.01, -7092.72, -7052.56, -7194.47, -149440.42, -118342.20, -141379.88, -145140.17, 0.000, 0.000, 0.000, 14:18:07.168, 1547011087168
113, -7159.53, -7094.13, -7053.99, -7195.94, -149441.97, -118343.84, -141381.58, -145141.86, 0.000, 0.000, 0.000, 14:18:07.169, 1547011087169
114, -7160.16, -7094.80, -7054.75, -7196.64, -149442.70, -118344.57, -141382.41, -145142.66, 0.000, 0.000, 0.000, 14:18:07.169, 1547011087169
115, -7161.10, -7095.72, -7055.64, -7197.51, -149443.67, -118345.51, -141383.45, -145143.73, 0.042, 0.004, 1.046, 14:18:07.169, 1547011087169
116, -7160.49, -7095.11, -7055.02, -7196.86, -149443.09, -118344.88, -141382.88, -145143.03, 0.000, 0.000, 0.000, 14:18:07.169, 1547011087169
117, -7158.73, -7093.26, -7053.16, -7195.00, -149441.17, -118342.96, -141380.86, -145141.03, 0.000, 0.000, 0.000, 14:18:07.169, 1547011087169
118, -7158.55, -7093.15, -7053.03, -7194.96, -149441.08, -118342.96, -141380.80, -145141.06, 0.000, 0.000, 0.000, 14:18:07.169, 1547011087169
119, -7159.84, -7094.35, -7054.23, -7196.12, -149442.34, -118344.23, -141382.13, -145142.25, 0.000, 0.000, 0.000, 14:18:07.170, 1547011087170
120, -7161.77, -7096.23, -7056.11, -7198.04, -149444.23, -118346.09, -141383.97, -145143.97, 0.000, 0.000, 0.000, 14:18:07.170, 1547011087170
121, -7160.47, -7095.00, -7054.81, -7196.75, -149442.80, -118344.62, -141382.58, -145142.70, 0.000, 0.000, 0.000, 14:18:07.571, 1547011087571
122, -7158.44, -7093.08, -7052.94, -7194.74, -149440.78, -118342.58, -141380.50, -145140.59, 0.000, 0.000, 0.000, 14:18:07.573, 1547011087573
123, -7158.41, -7092.99, -7052.87, -7194.78, -149440.89, -118342.78, -141380.56, -145140.75, 0.000, 0.000, 0.000, 14:18:07.574, 1547011087574
124, -7159.64, -7094.24, -7054.08, -7196.08, -149442.28, -118344.03, -141381.89, -145142.03, 0.000, 0.000, 0.000, 14:18:07.575, 1547011087575
125, -7161.99, -7096.57, -7056.47, -7198.45, -149444.56, -118346.25, -141384.22, -145144.22, 0.038, 0.004, 1.038, 14:18:07.576, 1547011087576
126, -7161.28, -7095.76, -7055.71, -7197.53, -149443.63, -118345.40, -141383.41, -145143.31, 0.000, 0.000, 0.000, 14:18:07.576, 1547011087576
127, -7158.39, -7092.92, -7052.87, -7194.60, -149440.66, -118342.49, -141380.34, -145140.28, 0.000, 0.000, 0.000, 14:18:07.577, 1547011087577
128, -7158.57, -7093.10, -7053.07, -7194.83, -149440.97, -118342.89, -141380.67, -145140.58, 0.000, 0.000, 0.000, 14:18:07.577, 1547011087577
129, -7156.80, -7091.38, -7051.37, -7193.10, -149439.22, -118341.11, -141379.03, -145139.06, 0.000, 0.000, 0.000, 14:18:07.578, 1547011087578
130, -7158.12, -7092.59, -7052.56, -7194.40, -149440.47, -118342.27, -141380.28, -145140.38, 0.000, 0.000, 0.000, 14:18:07.579, 1547011087579
131, -7159.84, -7094.49, -7054.30, -7196.17, -149442.22, -118343.92, -141381.97, -145142.03, 0.000, 0.000, 0.000, 14:18:07.579, 1547011087579
132, -7160.76, -7095.38, -7055.24, -7197.10, -149443.06, -118344.73, -141382.69, -145142.70, 0.000, 0.000, 0.000, 14:18:07.580, 1547011087580
133, -7161.77, -7096.50, -7056.13, -7198.18, -149444.23, -118345.98, -141383.81, -145143.91, 0.000, 0.000, 0.000, 14:18:07.581, 1547011087581
134, -7160.74, -7095.47, -7055.15, -7197.26, -149443.20, -118344.88, -141382.72, -145142.83, 0.000, 0.000, 0.000, 14:18:07.582, 1547011087582
135, -7160.81, -7095.38, -7055.24, -7197.31, -149443.17, -118344.81, -141382.63, -145142.77, 0.042, 0.002, 1.042, 14:18:07.582, 1547011087582
136, -7160.96, -7095.58, -7055.40, -7197.42, -149443.36, -118344.97, -141382.94, -145142.86, 0.000, 0.000, 0.000, 14:18:07.582, 1547011087582
137, -7158.79, -7093.37, -7053.18, -7195.16, -149441.02, -118342.67, -141380.64, -145140.58, 0.000, 0.000, 0.000, 14:18:07.582, 1547011087582
138, -7158.95, -7093.62, -7053.34, -7195.47, -149441.20, -118342.89, -141380.95, -145140.89, 0.000, 0.000, 0.000, 14:18:07.582, 1547011087582
139, -7160.36, -7095.09, -7054.81, -7196.95, -149442.78, -118344.41, -141382.31, -145142.36, 0.000, 0.000, 0.000, 14:18:07.582, 1547011087582
140, -7159.31, -7094.04, -7053.74, -7195.88, -149441.72, -118343.34, -141381.17, -145141.27, 0.000, 0.000, 0.000, 14:18:07.582, 1547011087582
141, -7159.02, -7093.68, -7053.41, -7195.63, -149441.39, -118342.89, -141380.91, -145140.88, 0.000, 0.000, 0.000, 14:18:07.583, 1547011087583
142, -7158.12, -7092.63, -7052.35, -7194.53, -149440.31, -118341.80, -141379.89, -145139.77, 0.000, 0.000, 0.000, 14:18:07.583, 1547011087583
143, -7160.52, -7095.16, -7054.75, -7196.95, -149442.95, -118344.41, -141382.44, -145142.44, 0.000, 0.000, 0.000, 14:18:07.583, 1547011087583
144, -7159.80, -7094.51, -7054.12, -7196.23, -149442.38, -118343.85, -141381.86, -145141.92, 0.000, 0.000, 0.000, 14:18:07.583, 1547011087583
145, -7160.72, -7095.38, -7055.02, -7197.17, -149443.27, -118344.77, -141382.64, -145142.81, 0.046, 0.000, 1.044, 14:18:07.583, 1547011087583
146, -7160.14, -7094.73, -7054.52, -7196.68, -149442.58, -118344.21, -141382.09, -145142.09, 0.000, 0.000, 0.000, 14:18:07.583, 1547011087583
147, -7159.33, -7093.97, -7053.81, -7195.83, -149441.66, -118343.25, -141381.17, -145141.06, 0.000, 0.000, 0.000, 14:18:07.583, 1547011087583
148, -7159.58, -7094.29, -7053.99, -7196.14, -149441.95, -118343.61, -141381.44, -145141.47, 0.000, 0.000, 0.000, 14:18:07.583, 1547011087583
149, -7161.70, -7096.30, -7055.93, -7198.13, -149444.03, -118345.58, -141383.47, -145143.53, 0.000, 0.000, 0.000, 14:18:07.584, 1547011087584
150, -7161.14, -7095.76, -7055.40, -7197.64, -149443.33, -118344.91, -141382.84, -145142.86, 0.000, 0.000, 0.000, 14:18:07.584, 1547011087584
151, -7160.65, -7095.31, -7054.99, -7197.24, -149442.91, -118344.37, -141382.41, -145142.33, 0.000, 0.000, 0.000, 14:18:07.584, 1547011087584
152, -7160.07, -7094.78, -7054.46, -7196.52, -149442.11, -118343.63, -141381.64, -145141.56, 0.000, 0.000, 0.000, 14:18:07.584, 1547011087584
153, -7160.87, -7095.72, -7055.28, -7197.53, -149443.27, -118344.75, -141382.77, -145142.77, 0.000, 0.000, 0.000, 14:18:07.586, 1547011087586
154, -7162.50, -7097.33, -7056.87, -7199.16, -149444.92, -118346.38, -141384.33, -145144.47, 0.000, 0.000, 0.000, 14:18:07.586, 1547011087586
155, -7160.02, -7094.76, -7054.46, -7196.55, -149442.38, -118343.92, -141381.81, -145141.89, 0.046, 0.000, 1.048, 14:18:07.586, 1547011087586
156, -7160.20, -7094.94, -7054.75, -7196.66, -149442.53, -118344.03, -141382.02, -145142.03, 0.000, 0.000, 0.000, 14:18:07.586, 1547011087586
157, -7158.93, -7093.68, -7053.45, -7195.27, -149441.14, -118342.54, -141380.48, -145140.44, 0.000, 0.000, 0.000, 14:18:07.586, 1547011087586
158, -7160.20, -7095.09, -7054.77, -7196.68, -149442.63, -118344.03, -141382.02, -145142.02, 0.000, 0.000, 0.000, 14:18:07.586, 1547011087586
159, -7160.09, -7094.87, -7054.57, -7196.50, -149442.42, -118343.92, -141381.89, -145141.81, 0.000, 0.000, 0.000, 14:18:07.587, 1547011087587
160, -7158.66, -7093.39, -7053.07, -7194.96, -149440.78, -118342.29, -141380.30, -145140.20, 0.000, 0.000, 0.000, 14:18:07.587, 1547011087587
161, -7158.35, -7093.12, -7052.78, -7194.58, -149440.63, -118342.07, -141380.05, -145139.97, 0.000, 0.000, 0.000, 14:18:07.588, 1547011087588
162, -7159.33, -7094.13, -7053.85, -7195.56, -149441.52, -118343.05, -141380.91, -145140.75, 0.000, 0.000, 0.000, 14:18:07.589, 1547011087589
163, -7160.72, -7095.49, -7055.26, -7197.04, -149443.11, -118344.62, -141382.58, -145142.48, 0.000, 0.000, 0.000, 14:18:07.589, 1547011087589
164, -7160.02, -7094.82, -7054.48, -7196.35, -149442.44, -118343.99, -141381.91, -145141.86, 0.048, 0.000, 1.046, 14:18:07.589, 1547011087589
165, -7160.47, -7095.43, -7054.90, -7196.68, -149442.94, -118344.34, -141382.20, -145142.14, 0.000, 0.000, 0.000, 14:18:07.589, 1547011087589
166, -7162.04, -7096.99, -7056.56, -7198.29, -149444.47, -118345.91, -141383.78, -145143.75, 0.000, 0.000, 0.000, 14:18:07.589, 1547011087589
167, -7162.42, -7097.33, -7056.98, -7198.56, -149444.70, -118346.18, -141384.03, -145143.91, 0.000, 0.000, 0.000, 14:18:07.589, 1547011087589
168, -7163.06, -7097.89, -7057.47, -7199.14, -149445.30, -118346.85, -141384.66, -145144.67, 0.000, 0.000, 0.000, 14:18:07.590, 1547011087590
169, -7162.44, -7097.21, -7056.87, -7198.58, -149444.70, -118346.25, -141384.03, -145144.09, 0.000, 0.000, 0.000, 14:18:07.590, 1547011087590
170, -7161.07, -7095.94, -7055.62, -7197.28, -149443.52, -118344.84, -141382.88, -145142.70, 0.000, 0.000, 0.000, 14:18:07.590, 1547011087590
171, -7162.30, -7097.10, -7056.78, -7198.31, -149444.56, -118345.95, -141383.97, -145143.81, 0.000, 0.000, 0.000, 14:18:07.590, 1547011087590
172, -7161.45, -7096.16, -7055.86, -7197.35, -149443.61, -118344.93, -141383.03, -145142.77, 0.000, 0.000, 0.000, 14:18:07.590, 1547011087590
173, -7161.23, -7096.05, -7055.69, -7197.13, -149443.63, -118344.91, -141383.03, -145142.81, 0.000, 0.000, 0.000, 14:18:07.590, 1547011087590
174, -7161.03, -7095.87, -7055.46, -7196.97, -149443.52, -118344.86, -141382.84, -145142.70, 0.046, 0.000, 1.040, 14:18:07.590, 1547011087590
175, -7161.07, -7095.81, -7055.46, -7196.93, -149443.44, -118344.80, -141382.77, -145142.70, 0.000, 0.000, 0.000, 14:18:07.590, 1547011087590
176, -7163.53, -7098.29, -7057.92, -7199.30, -149445.84, -118347.23, -141385.16, -145144.98, 0.000, 0.000, 0.000, 14:18:07.591, 1547011087591
177, -7162.15, -7096.83, -7056.47, -7197.71, -149444.36, -118345.66, -141383.72, -145143.34, 0.000, 0.000, 0.000, 14:18:07.591, 1547011087591
178, -7161.92, -7096.63, -7056.31, -7197.57, -149444.31, -118345.60, -141383.63, -145143.38, 0.000, 0.000, 0.000, 14:18:07.591, 1547011087591
179, -7164.20, -7099.03, -7058.77, -7200.03, -149446.75, -118348.05, -141386.05, -145145.88, 0.000, 0.000, 0.000, 14:18:07.591, 1547011087591
180, -7165.21, -7099.99, -7059.64, -7200.86, -149447.63, -118348.88, -141386.89, -145146.59, 0.000, 0.000, 0.000, 14:18:07.591, 1547011087591
181, -7165.43, -7100.10, -7059.78, -7200.93, -149447.69, -118349.02, -141386.94, -145146.61, 0.000, 0.000, 0.000, 14:18:07.591, 1547011087591
182, -7165.72, -7100.39, -7060.11, -7201.17, -149447.94, -118349.13, -141387.08, -145146.77, 0.000, 0.000, 0.000, 14:18:07.591, 1547011087591
183, -7165.66, -7100.39, -7060.11, -7201.15, -149448.00, -118349.17, -141387.16, -145146.95, 0.000, 0.000, 0.000, 14:18:07.592, 1547011087592
184, -7166.39, -7101.08, -7060.80, -7201.73, -149448.66, -118349.91, -141387.88, -145147.63, 0.048, 0.002, 1.038, 14:18:07.592, 1547011087592
185, -7166.91, -7101.62, -7061.30, -7202.20, -149449.09, -118350.36, -141388.33, -145148.14, 0.000, 0.000, 0.000, 14:18:07.592, 1547011087592
186, -7164.11, -7098.94, -7058.61, -7199.52, -149446.34, -118347.72, -141385.59, -145145.41, 0.000, 0.000, 0.000, 14:18:07.592, 1547011087592
187, -7162.64, -7097.44, -7057.18, -7198.02, -149444.88, -118346.11, -141383.97, -145143.78, 0.000, 0.000, 0.000, 14:18:07.592, 1547011087592
188, -7162.33, -7097.10, -7056.83, -7197.66, -149444.72, -118345.98, -141383.77, -145143.66, 0.000, 0.000, 0.000, 14:18:07.592, 1547011087592
189, -7161.43, -7096.25, -7055.91, -7196.77, -149443.83, -118345.11, -141382.98, -145142.86, 0.000, 0.000, 0.000, 14:18:07.592, 1547011087592
190, -7161.07, -7095.85, -7055.53, -7196.23, -149443.36, -118344.70, -141382.56, -145142.41, 0.000, 0.000, 0.000, 14:18:07.593, 1547011087593
191, -7160.49, -7095.31, -7055.15, -7195.65, -149442.84, -118344.16, -141382.06, -145141.89, 0.000, 0.000, 0.000, 14:18:07.593, 1547011087593
192, -7159.71, -7094.56, -7054.37, -7194.80, -149442.00, -118343.23, -141381.17, -145140.95, 0.000, 0.000, 0.000, 14:18:07.593, 1547011087593
193, -7156.94, -7091.72, -7051.46, -7192.10, -149439.27, -118340.48, -141378.36, -145138.16, 0.000, 0.000, 0.000, 14:18:07.593, 1547011087593
194, -7158.79, -7093.62, -7053.45, -7194.09, -149441.28, -118342.54, -141380.33, -145140.22, 0.048, 0.002, 1.036, 14:18:07.593, 1547011087593
195, -7159.96, -7094.80, -7054.59, -7195.12, -149442.39, -118343.59, -141381.42, -145141.34, 0.000, 0.000, 0.000, 14:18:07.593, 1547011087593
196, -7157.30, -7092.03, -7051.84, -7192.32, -149439.52, -118340.66, -141378.63, -145138.41, 0.000, 0.000, 0.000, 14:18:07.593, 1547011087593
197, -7157.25, -7091.96, -7051.75, -7192.21, -149439.44, -118340.57, -141378.53, -145138.20, 0.000, 0.000, 0.000, 14:18:07.594, 1547011087594
198, -7157.79, -7092.59, -7052.31, -7192.70, -149440.09, -118341.24, -141379.20, -145138.91, 0.000, 0.000, 0.000, 14:18:07.594, 1547011087594
199, -7158.08, -7092.83, -7052.49, -7192.93, -149440.45, -118341.62, -141379.42, -145139.28, 0.000, 0.000, 0.000, 14:18:07.595, 1547011087595
200, -7161.19, -7095.94, -7055.69, -7195.99, -149443.44, -118344.68, -141382.47, -145142.30, 0.000, 0.000, 0.000, 14:18:07.595, 1547011087595
201, -7160.25, -7094.98, -7054.79, -7195.00, -149442.55, -118343.59, -141381.63, -145141.41, 0.000, 0.000, 0.000, 14:18:07.596, 1547011087596
202, -7161.30, -7096.05, -7055.86, -7196.05, -149443.64, -118344.59, -141382.64, -145142.36, 0.000, 0.000, 0.000, 14:18:07.596, 1547011087596
203, -7162.82, -7097.51, -7057.27, -7197.51, -149445.14, -118346.31, -141384.25, -145144.00, 0.000, 0.000, 0.000, 14:18:07.596, 1547011087596
204, -7161.54, -7096.30, -7056.04, -7196.23, -149444.03, -118345.20, -141383.03, -145142.86, 0.046, -0.002, 1.034, 14:18:07.596, 1547011087596
205, -7159.96, -7094.82, -7054.52, -7194.71, -149442.39, -118343.45, -141381.31, -145141.09, 0.000, 0.000, 0.000, 14:18:07.596, 1547011087596
206, -7161.25, -7096.03, -7055.75, -7195.92, -149443.58, -118344.64, -141382.61, -145142.20, 0.000, 0.000, 0.000, 14:18:07.596, 1547011087596
207, -7162.64, -7097.35, -7057.09, -7197.17, -149444.78, -118345.80, -141383.78, -145143.38, 0.000, 0.000, 0.000, 14:18:07.596, 1547011087596
208, -7162.75, -7097.42, -7057.07, -7197.28, -149444.94, -118345.98, -141383.97, -145143.64, 0.000, 0.000, 0.000, 14:18:07.596, 1547011087596
209, -7161.63, -7096.28, -7055.89, -7196.32, -149443.80, -118344.93, -141382.83, -145142.59, 0.000, 0.000, 0.000, 14:18:07.597, 1547011087597
210, -7161.86, -7096.48, -7056.13, -7196.48, -149443.95, -118345.13, -141382.98, -145142.72, 0.000, 0.000, 0.000, 14:18:07.597, 1547011087597
211, -7160.85, -7095.47, -7055.15, -7195.41, -149442.91, -118343.97, -141381.91, -145141.58, 0.000, 0.000, 0.000, 14:18:07.597, 1547011087597
212, -7158.41, -7093.01, -7052.82, -7192.86, -149440.39, -118341.44, -141379.34, -145138.95, 0.000, 0.000, 0.000, 14:18:07.597, 1547011087597
213, -7158.46, -7093.15, -7052.96, -7192.93, -149440.67, -118341.73, -141379.61, -145139.22, 0.048, 0.004, 1.036, 14:18:07.597, 1547011087597
214, -7161.52, -7096.16, -7055.95, -7195.96, -149443.77, -118344.80, -141382.69, -145142.44, 0.000, 0.000, 0.000, 14:18:07.597, 1547011087597
215, -7164.16, -7098.73, -7058.59, -7198.54, -149446.33, -118347.48, -141385.44, -145145.14, 0.000, 0.000, 0.000, 14:18:07.597, 1547011087597
216, -7163.31, -7097.89, -7057.83, -7197.73, -149445.55, -118346.56, -141384.61, -145144.17, 0.000, 0.000, 0.000, 14:18:07.598, 1547011087598
217, -7160.65, -7095.31, -7055.13, -7195.03, -149442.80, -118343.72, -141381.80, -145141.41, 0.000, 0.000, 0.000, 14:18:07.598, 1547011087598
218, -7161.10, -7095.83, -7055.60, -7195.52, -149443.36, -118344.37, -141382.47, -145142.03, 0.000, 0.000, 0.000, 14:18:07.598, 1547011087598
219, -7161.74, -7096.54, -7056.38, -7196.19, -149444.11, -118345.13, -141383.23, -145142.88, 0.000, 0.000, 0.000, 14:18:07.598, 1547011087598
220, -7161.19, -7096.05, -7055.69, -7195.54, -149443.47, -118344.48, -141382.56, -145142.14, 0.000, 0.000, 0.000, 14:18:07.598, 1547011087598
221, -7160.27, -7095.11, -7054.84, -7194.53, -149442.69, -118343.52, -141381.59, -145141.14, 0.000, 0.000, 0.000, 14:18:07.598, 1547011087598
222, -7157.99, -7092.74, -7052.51, -7192.14, -149440.20, -118341.06, -141379.11, -145138.66, 0.000, 0.000, 0.000, 14:18:07.599, 1547011087599
223, -7158.97, -7093.64, -7053.45, -7193.13, -149441.23, -118342.18, -141380.19, -145139.73, 0.052, 0.002, 1.032, 14:18:07.599, 1547011087599
224, -7159.04, -7093.55, -7053.45, -7193.22, -149441.28, -118342.29, -141380.30, -145139.86, 0.000, 0.000, 0.000, 14:18:07.599, 1547011087599
225, -7159.80, -7094.33, -7054.23, -7193.95, -149442.06, -118343.01, -141381.02, -145140.58, 0.000, 0.000, 0.000, 14:18:07.599, 1547011087599
226, -7161.92, -7096.54, -7056.45, -7196.17, -149444.34, -118345.29, -141383.27, -145142.88, 0.000, 0.000, 0.000, 14:18:07.599, 1547011087599
227, -7162.15, -7096.83, -7056.74, -7196.39, -149444.58, -118345.48, -141383.47, -145143.02, 0.000, 0.000, 0.000, 14:18:07.599, 1547011087599
228, -7163.42, -7098.00, -7057.76, -7197.53, -149445.77, -118346.72, -141384.72, -145144.27, 0.000, 0.000, 0.000, 14:18:07.600, 1547011087600
229, -7163.87, -7098.47, -7058.19, -7198.00, -149446.22, -118347.07, -141385.16, -145144.78, 0.000, 0.000, 0.000, 14:18:07.600, 1547011087600
230, -7163.42, -7098.04, -7057.76, -7197.57, -149445.72, -118346.67, -141384.72, -145144.17, 0.000, 0.000, 0.000, 14:18:07.600, 1547011087600
231, -7162.82, -7097.39, -7057.21, -7196.99, -149445.05, -118345.98, -141383.98, -145143.48, 0.000, 0.000, 0.000, 14:18:07.600, 1547011087600
232, -7163.04, -7097.60, -7057.47, -7197.22, -149445.25, -118346.09, -141384.17, -145143.64, 0.000, 0.000, 0.000, 14:18:07.601, 1547011087601
233, -7165.46, -7100.01, -7059.93, -7199.61, -149447.78, -118348.66, -141386.69, -145146.13, 0.044, 0.002, 1.028, 14:18:07.601, 1547011087601
234, -7166.01, -7100.57, -7060.38, -7200.17, -149448.50, -118349.29, -141387.34, -145146.86, 0.000, 0.000, 0.000, 14:18:07.601, 1547011087601
235, -7165.01, -7099.56, -7059.35, -7199.23, -149447.31, -118348.15, -141386.16, -145145.61, 0.000, 0.000, 0.000, 14:18:07.602, 1547011087602
236, -7164.14, -7098.78, -7058.66, -7198.42, -149446.47, -118347.27, -141385.31, -145144.72, 0.000, 0.000, 0.000, 14:18:07.602, 1547011087602
237, -7162.04, -7096.66, -7056.58, -7196.23, -149444.20, -118345.09, -141383.08, -145142.39, 0.000, 0.000, 0.000, 14:18:07.602, 1547011087602
238, -7161.39, -7096.03, -7055.86, -7195.70, -149443.64, -118344.55, -141382.48, -145141.89, 0.000, 0.000, 0.000, 14:18:07.603, 1547011087603
239, -7162.75, -7097.37, -7057.09, -7197.02, -149445.14, -118345.98, -141383.94, -145143.42, 0.000, 0.000, 0.000, 14:18:07.604, 1547011087604
240, -7162.42, -7096.99, -7056.83, -7196.61, -149444.73, -118345.58, -141383.56, -145142.98, 0.000, 0.000, 0.000, 14:18:07.605, 1547011087605
241, -7163.91, -7098.42, -7058.43, -7198.07, -149446.06, -118346.88, -141384.92, -145144.31, 0.000, 0.000, 0.000, 14:18:08.049, 1547011088049
242, -7163.26, -7097.84, -7057.88, -7197.46, -149445.09, -118345.98, -141383.94, -145143.27, 0.000, 0.000, 0.000, 14:18:08.050, 1547011088050
243, -7161.19, -7095.78, -7055.80, -7195.45, -149443.22, -118344.05, -141382.06, -145141.31, 0.048, 0.000, 1.034, 14:18:08.053, 1547011088053
244, -7159.84, -7094.38, -7054.34, -7194.09, -149442.19, -118342.98, -141381.13, -145140.41, 0.000, 0.000, 0.000, 14:18:08.053, 1547011088053
245, -7159.71, -7094.13, -7054.10, -7193.82, -149441.83, -118342.67, -141380.75, -145140.06, 0.000, 0.000, 0.000, 14:18:08.054, 1547011088054
246, -7161.50, -7095.87, -7055.86, -7195.61, -149443.63, -118344.52, -141382.58, -145141.86, 0.000, 0.000, 0.000, 14:18:08.055, 1547011088055
247, -7161.21, -7095.58, -7055.64, -7195.27, -149443.36, -118344.08, -141382.28, -145141.50, 0.000, 0.000, 0.000, 14:18:08.056, 1547011088056
248, -7162.79, -7097.15, -7057.12, -7196.79, -149444.86, -118345.64, -141383.83, -145143.08, 0.000, 0.000, 0.000, 14:18:08.056, 1547011088056
249, -7164.05, -7098.53, -7058.43, -7198.31, -149446.27, -118347.09, -141385.19, -145144.48, 0.000, 0.000, 0.000, 14:18:08.057, 1547011088057
250, -7165.43, -7099.74, -7059.78, -7199.59, -149447.53, -118348.37, -141386.47, -145145.70, 0.000, 0.000, 0.000, 14:18:08.057, 1547011088057
251, -7165.54, -7099.90, -7059.78, -7199.59, -149447.48, -118348.34, -141386.48, -145145.77, 0.000, 0.000, 0.000, 14:18:08.057, 1547011088057
252, -7163.44, -7097.82, -7057.79, -7197.55, -149445.45, -118346.13, -141384.28, -145143.48, 0.000, 0.000, 0.000, 14:18:08.058, 1547011088058
253, -7162.26, -7096.59, -7056.60, -7196.37, -149444.30, -118344.99, -141383.14, -145142.41, 0.048, 0.002, 1.044, 14:18:08.059, 1547011088059
254, -7161.48, -7095.74, -7055.73, -7195.50, -149443.52, -118344.23, -141382.41, -145141.63, 0.000, 0.000, 0.000, 14:18:08.059, 1547011088059
255, -7161.66, -7095.99, -7055.91, -7195.67, -149443.73, -118344.39, -141382.58, -145141.70, 0.000, 0.000, 0.000, 14:18:08.060, 1547011088060
0, -7161.07, -7095.49, -7055.37, -7195.16, -149443.11, -118343.74, -141381.97, -145141.06, 0.000, 0.000, 0.000, 14:18:08.060, 1547011088060
1, -7158.57, -7092.81, -7052.80, -7192.59, -149440.50, -118341.02, -141379.27, -145138.36, 0.000, 0.000, 0.000, 14:18:08.061, 1547011088061
2, -7157.21, -7091.36, -7051.35, -7191.16, -149439.16, -118339.70, -141377.97, -145137.00, 0.000, 0.000, 0.000, 14:18:08.062, 1547011088062
3, -7158.64, -7092.83, -7052.85, -7192.63, -149440.67, -118341.33, -141379.50, -145138.72, 0.000, 0.000, 0.000, 14:18:08.064, 1547011088064
4, -7158.97, -7093.26, -7053.27, -7193.10, -149441.13, -118341.73, -141379.86, -145139.06, 0.000, 0.000, 0.000, 14:18:08.066, 1547011088066
5, -7157.90, -7092.19, -7052.18, -7191.96, -149439.98, -118340.63, -141378.80, -145137.92, 0.000, 0.000, 0.000, 14:18:08.066, 1547011088066
6, -7159.62, -7093.86, -7053.81, -7193.60, -149441.59, -118342.13, -141380.34, -145139.38, 0.000, 0.000, 0.000, 14:18:08.067, 1547011088067
7, -7165.01, -7099.29, -7059.22, -7199.07, -149447.14, -118347.72, -141385.89, -145144.95, 0.044, -0.002, 1.040, 14:18:08.067, 1547011088067
8, -7163.89, -7098.18, -7058.17, -7198.00, -149445.97, -118346.67, -141384.81, -145143.95, 0.000, 0.000, 0.000, 14:18:08.067, 1547011088067
9, -7163.42, -7097.71, -7057.72, -7197.53, -149445.50, -118346.07, -141384.14, -145143.39, 0.000, 0.000, 0.000, 14:18:08.071, 1547011088071
10, -7164.05, -7098.31, -7058.43, -7198.18, -149446.16, -118346.65, -141384.72, -145144.00, 0.000, 0.000, 0.000, 14:18:08.071, 1547011088071
11, -7162.19, -7096.39, -7056.42, -7196.17, -149444.16, -118344.64, -141382.83, -145141.89, 0.000, 0.000, 0.000, 14:18:08.076, 1547011088076
12, -7163.11, -7097.39, -7057.34, -7197.22, -149445.23, -118345.77, -141383.88, -145143.03, 0.000, 0.000, 0.000, 14:18:08.076, 1547011088076
13, -7167.56, -7101.86, -7061.85, -7201.71, -149449.75, -118350.47, -141388.50, -145147.69, 0.000, 0.000, 0.000, 14:18:08.077, 1547011088077
14, -7168.11, -7102.22, -7062.44, -7202.18, -149450.17, -118350.88, -141388.88, -145148.09, 0.000, 0.000, 0.000, 14:18:08.077, 1547011088077
15, -7168.25, -7102.36, -7062.39, -7202.27, -149450.28, -118350.85, -141388.97, -145148.14, 0.000, 0.000, 0.000, 14:18:08.077, 1547011088077
16, -7168.36, -7102.56, -7062.46, -7202.36, -149450.33, -118350.83, -141389.00, -145148.06, 0.044, 0.002, 1.038, 14:18:08.078, 1547011088078
17, -7170.08, -7104.39, -7064.34, -7204.19, -149452.14, -118352.69, -141390.83, -145150.02, 0.000, 0.000, 0.000, 14:18:08.078, 1547011088078
18, -7171.67, -7106.04, -7065.99, -7205.96, -149453.92, -118354.45, -141392.61, -145151.83, 0.000, 0.000, 0.000, 14:18:08.078, 1547011088078
19, -7168.54, -7102.78, -7062.75, -7202.74, -149450.58, -118351.09, -141389.36, -145148.45, 0.000, 0.000, 0.000, 14:18:08.078, 1547011088078
20, -7167.67, -7101.89, -7061.92, -7201.84, -149449.66, -118350.18, -141388.44, -145147.63, 0.000, 0.000, 0.000, 14:18:08.079, 1547011088079
21, -7167.20, -7101.42, -7061.39, -7201.20, -149449.02, -118349.58, -141387.77, -145146.88, 0.000, 0.000, 0.000, 14:18:08.079, 1547011088079
22, -7165.95, -7100.25, -7060.18, -7200.08, -149447.78, -118348.39, -141386.64, -145145.56, 0.000, 0.000, 0.000, 14:18:08.079, 1547011088079
23, -7164.61, -7099.00, -7058.88, -7198.87, -149446.59, -118347.21, -141385.50, -145144.56, 0.000, 0.000, 0.000, 14:18:08.079, 1547011088079
24, -7164.20, -7098.51, -7058.41, -7198.42, -149445.92, -118346.65, -141384.92, -145143.97, 0.000, 0.000, 0.000, 14:18:08.080, 1547011088080
25, -7161.81, -7096.12, -7056.09, -7196.05, -149443.63, -118344.19, -141382.53, -145141.52, 0.000, 0.000, 0.000, 14:18:08.081, 1547011088081
26, -7164.61, -7098.80, -7058.88, -7198.74, -149446.33, -118346.85, -141385.16, -145144.05, 0.044, 0.002, 1.038, 14:18:08.081, 1547011088081
27, -7166.28, -7100.57, -7060.58, -7200.55, -149448.20, -118348.70, -141386.95, -145145.89, 0.000, 0.000, 0.000, 14:18:08.082, 1547011088082
28, -7166.91, -7101.22, -7061.21, -7201.28, -149448.92, -118349.45, -141387.61, -145146.69, 0.000, 0.000, 0.000, 14:18:08.082, 1547011088082
29, -7167.11, -7101.22, -7061.21, -7201.22, -149448.78, -118349.29, -141387.52, -145146.55, 0.000, 0.000, 0.000, 14:18:08.086, 1547011088086
30, -7166.19, -7100.28, -7060.33, -7200.32, -149447.88, -118348.39, -141386.64, -145145.55, 0.000, 0.000, 0.000, 14:18:08.086, 1547011088086
31, -7164.90, -7098.96, -7059.06, -7198.94, -149446.47, -118346.94, -141385.16, -145143.94, 0.000, 0.000, 0.000, 14:18:08.087, 1547011088087
32, -7165.61, -7099.67, -7059.78, -7199.70, -149447.16, -118347.61, -141385.78, -145144.67, 0.000, 0.000, 0.000, 14:18:08.087, 1547011088087
33, -7165.77, -7099.79, -7059.98, -7199.92, -149447.33, -118347.79, -141386.05, -145144.94, 0.000, 0.000, 0.000, 14:18:08.087, 1547011088087
34, -7165.99, -7100.17, -7060.29, -7200.15, -149447.61, -118348.05, -141386.31, -145145.23, 0.000, 0.000, 0.000, 14:18:08.088, 1547011088088
35, -7166.84, -7101.01, -7061.16, -7200.99, -149448.39, -118348.86, -141387.16, -145146.05, 0.000, 0.000, 0.000, 14:18:08.089, 1547011088089
36, -7167.96, -7101.98, -7062.12, -7201.87, -149449.17, -118349.55, -141387.83, -145146.59, 0.042, 0.002, 1.042, 14:18:08.089, 1547011088089
37, -7168.70, -7102.80, -7062.88, -7202.67, -149450.00, -118350.45, -141388.69, -145147.50, 0.000, 0.000, 0.000, 14:18:08.089, 1547011088089
38, -7167.94, -7102.04, -7062.17, -7202.04, -149449.28, -118349.82, -141388.08, -145146.92, 0.000, 0.000, 0.000, 14:18:08.090, 1547011088090
39, -7166.62, -7100.70, -7060.83, -7200.66, -149447.88, -118348.39, -141386.61, -145145.52, 0.000, 0.000, 0.000, 14:18:08.090, 1547011088090
40, -7166.30, -7100.34, -7060.51, -7200.39, -149447.69, -118348.15, -141386.31, -145145.23, 0.000, 0.000, 0.000, 14:18:08.090, 1547011088090
41, -7166.35, -7100.37, -7060.51, -7200.37, -149447.64, -118347.99, -141386.05, -145145.00, 0.000, 0.000, 0.000, 14:18:08.090, 1547011088090
42, -7166.84, -7100.95, -7061.01, -7200.93, -149448.19, -118348.52, -141386.67, -145145.55, 0.000, 0.000, 0.000, 14:18:08.091, 1547011088091
43, -7165.77, -7099.85, -7060.02, -7199.94, -149447.22, -118347.66, -141385.89, -145144.78, 0.000, 0.000, 0.000, 14:18:08.091, 1547011088091
44, -7165.03, -7099.14, -7059.33, -7199.25, -149446.34, -118346.76, -141385.16, -145143.81, 0.000, 0.000, 0.000, 14:18:08.091, 1547011088091
45, -7167.33, -7101.46, -7061.61, -7201.51, -149448.61, -118348.93, -141387.23, -145146.03, 0.000, 0.000, 0.000, 14:18:08.091, 1547011088091
46, -7168.49, -7102.47, -7062.66, -7202.49, -149449.50, -118349.80, -141388.13, -145146.91, 0.042, 0.000, 1.040, 14:18:08.091, 1547011088091
47, -7166.84, -7100.84, -7060.96, -7200.86, -149447.88, -118348.17, -141386.53, -145145.25, 0.000, 0.000, 0.000, 14:18:08.091, 1547011088091
48, -7162.97, -7097.06, -7057.25, -7197.08, -149444.09, -118344.46, -141382.69, -145141.55, 0.000, 0.000, 0.000, 14:18:08.091, 1547011088091
49, -7163.47, -7097.62, -7057.76, -7197.66, -149444.63, -118344.99, -141383.19, -145141.98, 0.000, 0.000, 0.000, 14:18:08.092, 1547011088092
50, -7164.99, -7099.05, -7059.17, -7199.23, -149446.08, -118346.41, -141384.69, -145143.47, 0.000, 0.000, 0.000, 14:18:08.092, 1547011088092
51, -7164.31, -7098.27, -7058.39, -7198.33, -149445.19, -118345.48, -141383.83, -145142.45, 0.000, 0.000, 0.000, 14:18:08.092, 1547011088092
52, -7165.23, -7099.11, -7059.31, -7199.25, -149446.13, -118346.45, -141384.70, -145143.44, 0.000, 0.000, 0.000, 14:18:08.092, 1547011088092
53, -7164.69, -7098.60, -7058.81, -7198.92, -149445.81, -118346.13, -141384.38, -145143.19, 0.000, 0.000, 0.000, 14:18:08.092, 1547011088092
54, -7163.76, -7097.68, -7057.76, -7197.91, -149444.78, -118345.09, -141383.30, -145142.20, 0.000, 0.000, 0.000, 14:18:08.092, 1547011088092
55, -7164.54, -7098.53, -7058.66, -7198.78, -149445.69, -118345.91, -141384.14, -145143.08, 0.000, 0.000, 0.000, 14:18:08.092, 1547011088092
56, -7164.45, -7098.51, -7058.70, -7198.65, -149445.56, -118345.64, -141383.92, -145142.77, 0.044, -0.002, 1.042, 14:18:08.092, 1547011088092
57, -7164.11, -7098.27, -7058.37, -7198.36, -149445.17, -118345.40, -141383.67, -145142.41, 0.000, 0.000, 0.000, 14:18:08.093, 1547011088093
58, -7165.28, -7099.47, -7059.55, -7199.65, -149446.38, -118346.70, -141385.03, -145143.94, 0.000, 0.000, 0.000, 14:18:08.093, 1547011088093
59, -7165.28, -7099.36, -7059.51, -7199.72, -149446.38, -118346.54, -141384.97, -145143.80, 0.000, 0.000, 0.000, 14:18:08.093, 1547011088093
60, -7163.87, -7098.06, -7058.21, -7198.40, -149445.02, -118345.24, -141383.50, -145142.36, 0.000, 0.000, 0.000, 14:18:08.094, 1547011088094
61, -7163.09, -7097.28, -7057.52, -7197.46, -149444.03, -118344.33, -141382.61, -145141.41, 0.000, 0.000, 0.000, 14:18:08.094, 1547011088094
62, -7164.81, -7099.07, -7059.19, -7199.18, -149445.86, -118346.09, -141384.33, -145143.22, 0.000, 0.000, 0.000, 14:18:08.094, 1547011088094
63, -7166.33, -7100.63, -7060.74, -7200.86, -149447.56, -118347.81, -141386.00, -145144.98, 0.000, 0.000, 0.000, 14:18:08.094, 1547011088094
64, -7166.26, -7100.59, -7060.78, -7200.79, -149447.53, -118347.72, -141386.00, -145144.88, 0.000, 0.000, 0.000, 14:18:08.094, 1547011088094
65, -7163.51, -7097.80, -7058.08, -7198.07, -149444.70, -118344.86, -141383.27, -145142.03, 0.040, -0.004, 1.040, 14:18:08.094, 1547011088094
66, -7161.86, -7096.14, -7056.42, -7196.35, -149443.00, -118343.03, -141381.50, -145140.25, 0.000, 0.000, 0.000, 14:18:08.094, 1547011088094
67, -7162.48, -7096.77, -7056.94, -7196.97, -149443.63, -118343.79, -141382.22, -145140.94, 0.000, 0.000, 0.000, 14:18:08.095, 1547011088095
68, -7162.84, -7096.99, -7057.27, -7197.46, -149444.11, -118344.33, -141382.69, -145141.42, 0.000, 0.000, 0.000, 14:18:08.095, 1547011088095
69, -7164.96, -7099.14, -7059.37, -7199.56, -149446.17, -118346.31, -141384.66, -145143.38, 0.000, 0.000, 0.000, 14:18:08.095, 1547011088095
70, -7163.94, -7098.18, -7058.28, -7198.49, -149445.19, -118345.22, -141383.63, -145142.41, 0.000, 0.000, 0.000, 14:18:08.097, 1547011088097
71, -7163.87, -7098.18, -7058.28, -7198.36, -149444.94, -118345.02, -141383.42, -145142.20, 0.000, 0.000, 0.000, 14:18:08.097, 1547011088097
72, -7164.72, -7099.07, -7059.26, -7199.34, -149445.92, -118345.93, -141384.41, -145143.19, 0.000, 0.000, 0.000, 14:18:08.097, 1547011088097
73, -7164.94, -7099.38, -7059.49, -7199.68, -149446.27, -118346.31, -141384.81, -145143.63, 0.000, 0.000, 0.000, 14:18:08.097, 1547011088097
74, -7164.16, -7098.58, -7058.61, -7198.78, -149445.39, -118345.48, -141383.94, -145142.70, 0.000, 0.000, 0.000, 14:18:08.098, 1547011088098
75, -7164.20, -7098.56, -7058.61, -7198.71, -149445.30, -118345.40, -141383.73, -145142.45, 0.038, -0.006, 1.036, 14:18:08.098, 1547011088098
76, -7162.71, -7096.90, -7057.07, -7197.15, -149443.53, -118343.66, -141381.91, -145140.63, 0.000, 0.000, 0.000, 14:18:08.098, 1547011088098
77, -7163.20, -7097.48, -7057.65, -7197.80, -149444.45, -118344.48, -141382.83, -145141.47, 0.000, 0.000, 0.000, 14:18:08.098, 1547011088098
78, -7162.30, -7096.50, -7056.71, -7196.79, -149443.56, -118343.56, -141382.09, -145140.73, 0.000, 0.000, 0.000, 14:18:08.099, 1547011088099
79, -7162.86, -7097.15, -7057.38, -7197.35, -149444.09, -118344.19, -141382.64, -145141.31, 0.000, 0.000, 0.000, 14:18:08.099, 1547011088099
80, -7163.67, -7097.95, -7058.21, -7198.25, -149444.86, -118344.91, -141383.41, -145141.98, 0.000, 0.000, 0.000, 14:18:08.100, 1547011088100
81, -7165.23, -7099.50, -7059.87, -7199.76, -149446.34, -118346.41, -141384.92, -145143.42, 0.000, 0.000, 0.000, 14:18:08.100, 1547011088100
82, -7164.18, -7098.51, -7058.75, -7198.87, -149445.34, -118345.42, -141383.88, -145142.36, 0.000, 0.000, 0.000, 14:18:08.100, 1547011088100
83, -7163.47, -7097.89, -7058.12, -7198.29, -149444.92, -118344.95, -141383.39, -145141.98, 0.000, 0.000, 0.000, 14:18:08.100, 1547011088100
84, -7164.05, -7098.42, -7058.61, -7198.80, -149445.45, -118345.48, -141383.86, -145142.55, 0.000, 0.000, 0.000, 14:18:08.100, 1547011088100
85, -7164.45, -7098.85, -7058.97, -7199.09, -149445.75, -118345.84, -141384.22, -145142.81, 0.044, -0.008, 1.034, 14:18:08.100, 1547011088100
86, -7165.37, -7099.67, -7059.93, -7199.92, -149446.50, -118346.52, -141384.95, -145143.53, 0.000, 0.000, 0.000, 14:18:08.108, 1547011088108
87, -7163.17, -7097.51, -7057.85, -7197.91, -149444.47, -118344.48, -141383.00, -145141.55, 0.000, 0.000, 0.000, 14:18:08.110, 1547011088110
88, -7160.85, -7095.09, -7055.44, -7195.61, -149442.22, -118342.24, -141380.67, -145139.30, 0.000, 0.000, 0.000, 14:18:08.124, 1547011088124
89, -7161.28, -7095.54, -7055.86, -7196.12, -149442.53, -118342.70, -141381.02, -145139.58, 0.000, 0.000, 0.000, 14:18:08.126, 1547011088126
90, -7161.83, -7096.14, -7056.42, -7196.68, -149443.06, -118343.23, -141381.64, -145140.11, 0.000, 0.000, 0.000, 14:18:08.130, 1547011088130
91, -7162.12, -7096.43, -7056.78, -7196.88, -149443.33, -118343.41, -141381.86, -145140.28, 0.000, 0.000, 0.000, 14:18:08.131, 1547011088131
92, -7162.19, -7096.48, -7056.78, -7196.95, -149443.44, -118343.41, -141381.97, -145140.41, 0.000, 0.000, 0.000, 14:18:08.133, 1547011088133
93, -7163.71, -7098.18, -7058.37, -7198.63, -149445.19, -118345.22, -141383.73, -145142.20, 0.000, 0.000, 0.000, 14:18:08.134, 1547011088134
94, -7163.31, -7097.64, -7057.85, -7198.11, -149444.67, -118344.64, -141383.08, -145141.61, 0.000, 0.000, 0.000, 14:18:08.134, 1547011088134
95, -7162.59, -7096.97, -7057.21, -7197.44, -149444.00, -118343.97, -141382.36, -145140.84, 0.044, -0.002, 1.040, 14:18:08.135, 1547011088135
96, -7163.22, -7097.57, -7057.90, -7197.98, -149444.63, -118344.52, -141383.03, -145141.41, 0.000, 0.000, 0.000, 14:18:08.136, 1547011088136
97, -7163.56, -7097.95, -7058.32, -7198.40, -149445.02, -118344.86, -141383.42, -145141.94, 0.000, 0.000, 0.000, 14:18:08.136, 1547011088136
98, -7164.67, -7099.16, -7059.40, -7199.65, -149446.11, -118346.16, -141384.70, -145143.22, 0.000, 0.000, 0.000, 14:18:08.138, 1547011088138
99, -7163.47, -7097.89, -7058.19, -7198.51, -149445.05, -118344.93, -141383.50, -145142.05, 0.000, 0.000, 0.000, 14:18:08.140, 1547011088140
100, -7161.74, -7096.21, -7056.53, -7196.84, -149443.41, -118343.19, -141381.81, -145140.38, 0.000, 0.000, 0.000, 14:18:08.140, 1547011088140
101, -7161.83, -7096.32, -7056.65, -7196.84, -149443.33, -118343.16, -141381.75, -145140.27, 0.000, 0.000, 0.000, 14:18:08.140, 1547011088140
102, -7165.79, -7100.17, -7060.56, -7200.84, -149447.27, -118347.01, -141385.69, -145144.16, 0.000, 0.000, 0.000, 14:18:08.140, 1547011088140
103, -7165.86, -7100.19, -7060.65, -7200.90, -149447.52, -118347.27, -141385.95, -145144.48, 0.000, 0.000, 0.000, 14:18:08.140, 1547011088140
104, -7167.78, -7102.02, -7062.48, -7202.67, -149449.33, -118349.11, -141387.72, -145146.23, 0.000, 0.000, 0.000, 14:18:08.141, 1547011088141
105, -7169.25, -7103.65, -7063.98, -7204.19, -149450.73, -118350.54, -141389.16, -145147.66, 0.046, 0.002, 1.038, 14:18:08.535, 1547011088535
106, -7166.21, -7100.59, -7061.01, -7201.13, -149447.61, -118347.37, -141386.00, -145144.38, 0.000, 0.000, 0.000, 14:18:08.535, 1547011088535
107, -7164.72, -7099.09, -7059.51, -7199.59, -149446.19, -118345.91, -141384.59, -145143.03, 0.000, 0.000, 0.000, 14:18:08.535, 1547011088535
108, -7166.82, -7101.24, -7061.63, -7201.82, -149448.41, -118348.17, -141386.84, -145145.39, 0.000, 0.000, 0.000, 14:18:08.535, 1547011088535
109, -7165.32, -7099.63, -7060.09, -7200.28, -149446.64, -118346.49, -141385.06, -145143.64, 0.000, 0.000, 0.000, 14:18:08.536, 1547011088536
110, -7163.15, -7097.46, -7057.99, -7198.13, -149444.50, -118344.37, -141382.88, -145141.41, 0.000, 0.000, 0.000, 14:18:08.536, 1547011088536
111, -7161.59, -7095.83, -7056.42, -7196.52, -149442.95, -118342.67, -141381.31, -145139.64, 0.000, 0.000, 0.000, 14:18:08.536, 1547011088536
112, -7163.56, -7097.89, -7058.41, -7198.54, -149444.97, -118344.68, -141383.27, -145141.61, 0.000, 0.000, 0.000, 14:18:08.536, 1547011088536
113, -7166.26, -7100.63, -7061.01, -7201.26, -149447.61, -118347.59, -141386.09, -145144.52, 0.000, 0.000, 0.000, 14:18:08.537, 1547011088537
114, -7163.04, -7097.37, -7057.74, -7198.04, -149444.39, -118344.30, -141382.88, -145141.30, 0.044, -0.002, 1.048, 14:18:08.539, 1547011088539
115, -7162.44, -7096.83, -7057.25, -7197.46, -149443.63, -118343.52, -141382.06, -145140.42, 0.000, 0.000, 0.000, 14:18:08.542, 1547011088542
116, -7164.02, -7098.40, -7058.90, -7199.05, -149445.14, -118344.95, -141383.58, -145141.86, 0.000, 0.000, 0.000, 14:18:08.542, 1547011088542
117, -7162.44, -7096.81, -7057.36, -7197.46, -149443.73, -118343.48, -141382.06, -145140.47, 0.000, 0.000, 0.000, 14:18:08.542, 1547011088542
118, -7165.39, -7099.79, -7060.29, -7200.48, -149447.02, -118346.73, -141385.22, -145143.70, 0.000, 0.000, 0.000, 14:18:08.542, 1547011088542
119, -7163.38, -7097.77, -7058.23, -7198.51, -149444.89, -118344.64, -141383.19, -145141.55, 0.000, 0.000, 0.000, 14:18:08.542, 1547011088542
120, -7162.97, -7097.39, -7057.83, -7198.09, -149444.42, -118344.21, -141382.84, -145141.06, 0.000, 0.000, 0.000, 14:18:08.542, 1547011088542
121, -7162.26, -7096.70, -7057.12, -7197.37, -149443.69, -118343.45, -141382.05, -145140.28, 0.000, 0.000, 0.000, 14:18:08.542, 1547011088542
122, -7162.91, -7097.35, -7057.79, -7198.02, -149444.31, -118344.13, -141382.77, -145140.98, 0.000, 0.000, 0.000, 14:18:08.543, 1547011088543
123, -7164.31, -7098.85, -7059.22, -7199.54, -149445.81, -118345.64, -141384.33, -145142.61, 0.000, 0.000, 0.000, 14:18:08.543, 1547011088543
124, -7166.97, -7101.42, -7061.74, -7202.18, -149448.47, -118348.23, -141386.89, -145145.16, 0.038, 0.000, 1.048, 14:18:08.543, 1547011088543
125, -7166.26, -7100.63, -7061.01, -7201.46, -149447.69, -118347.48, -141386.17, -145144.42, 0.000, 0.000, 0.000, 14:18:08.543, 1547011088543
126, -7164.11, -7098.51, -7059.11, -7199.43, -149445.53, -118345.30, -141384.02, -145142.28, 0.000, 0.000, 0.000, 14:18:08.543, 1547011088543
127, -7163.51, -7097.95, -7058.55, -7198.78, -149445.03, -118344.73, -141383.36, -145141.67, 0.000, 0.000, 0.000, 14:18:08.543, 1547011088543
128, -7163.87, -7098.40, -7058.88, -7199.16, -149445.50, -118345.24, -141383.86, -145142.14, 0.000, 0.000, 0.000, 14:18:08.543, 1547011088543
129, -7166.30, -7100.75, -7061.27, -7201.64, -149447.83, -118347.72, -141386.27, -145144.52, 0.000, 0.000, 0.000, 14:18:08.545, 1547011088545
130, -7166.06, -7100.55, -7061.01, -7201.42, -149447.61, -118347.45, -141386.05, -145144.27, 0.000, 0.000, 0.000, 14:18:08.546, 1547011088546
131, -7164.38, -7098.87, -7059.37, -7199.81, -149445.97, -118345.71, -141384.33, -145142.64, 0.000, 0.000, 0.000, 14:18:08.546, 1547011088546
132, -7164.49, -7098.98, -7059.46, -7199.92, -149446.06, -118345.84, -141384.41, -145142.80, 0.000, 0.000, 0.000, 14:18:08.547, 1547011088547
133, -7164.11, -7098.62, -7059.15, -7199.68, -149445.80, -118345.71, -141384.25, -145142.52, 0.000, 0.000, 0.000, 14:18:08.547, 1547011088547
134, -7163.60, -7098.04, -7058.61, -7199.05, -149445.23, -118345.04, -141383.63, -145141.81, 0.040, 0.002, 1.044, 14:18:08.548, 1547011088548
135, -7164.43, -7098.87, -7059.44, -7199.94, -149446.13, -118345.84, -141384.44, -145142.59, 0.000, 0.000, 0.000, 14:18:08.548, 1547011088548
136, -7163.49, -7097.98, -7058.50, -7198.96, -149445.13, -118344.77, -141383.41, -145141.52, 0.000, 0.000, 0.000, 14:18:08.548, 1547011088548
137, -7161.48, -7096.01, -7056.58, -7196.99, -149443.06, -118342.78, -141381.39, -145139.53, 0.000, 0.000, 0.000, 14:18:08.548, 1547011088548
138, -7162.17, -7096.75, -7057.27, -7197.78, -149444.03, -118343.79, -141382.42, -145140.58, 0.000, 0.000, 0.000, 14:18:08.548, 1547011088548
139, -7159.76, -7094.35, -7054.90, -7195.34, -149441.66, -118341.33, -141379.97, -145138.14, 0.000, 0.000, 0.000, 14:18:08.548, 1547011088548
140, -7160.00, -7094.58, -7055.22, -7195.56, -149441.83, -118341.51, -141380.19, -145138.33, 0.000, 0.000, 0.000, 14:18:08.549, 1547011088549
141, -7162.26, -7096.70, -7057.43, -7197.71, -149443.80, -118343.59, -141382.20, -145140.28, 0.000, 0.000, 0.000, 14:18:08.549, 1547011088549
142, -7164.38, -7098.82, -7059.51, -7199.81, -149445.56, -118345.30, -141383.92, -145142.05, 0.000, 0.000, 0.000, 14:18:08.549, 1547011088549
143, -7163.85, -7098.18, -7058.84, -7199.27, -149445.13, -118344.86, -141383.41, -145141.67, 0.000, 0.000, 0.000, 14:18:08.549, 1547011088549
144, -7160.54, -7094.82, -7055.48, -7195.90, -149442.06, -118341.73, -141380.30, -145138.56, 0.038, 0.000, 1.048, 14:18:08.549, 1547011088549
145, -7160.40, -7094.64, -7055.42, -7195.85, -149442.02, -118341.69, -141380.28, -145138.50, 0.000, 0.000, 0.000, 14:18:08.550, 1547011088550
146, -7160.52, -7094.76, -7055.48, -7195.90, -149442.03, -118341.69, -141380.34, -145138.39, 0.000, 0.000, 0.000, 14:18:08.550, 1547011088550
147, -7159.17, -7093.46, -7054.19, -7194.49, -149440.77, -118340.39, -141378.95, -145137.14, 0.000, 0.000, 0.000, 14:18:08.550, 1547011088550
148, -7157.68, -7091.98, -7052.71, -7192.99, -149439.41, -118339.09, -141377.75, -145135.92, 0.000, 0.000, 0.000, 14:18:08.550, 1547011088550
149, -7157.94, -7092.23, -7052.96, -7193.22, -149439.64, -118339.30, -141377.97, -145136.06, 0.000, 0.000, 0.000, 14:18:08.550, 1547011088550
150, -7160.20, -7094.47, -7055.13, -7195.43, -149441.86, -118341.46, -141380.09, -145138.20, 0.000, 0.000, 0.000, 14:18:08.551, 1547011088551
151, -7161.79, -7096.01, -7056.76, -7196.99, -149443.28, -118342.94, -141381.64, -145139.75, 0.000, 0.000, 0.000, 14:18:08.551, 1547011088551
152, -7160.74, -7094.94, -7055.69, -7195.96, -149442.28, -118342.00, -141380.67, -145138.67, 0.000, 0.000, 0.000, 14:18:08.551, 1547011088551
153, -7160.52, -7094.71, -7055.33, -7195.74, -149442.06, -118341.80, -141380.52, -145138.56, 0.000, 0.000, 0.000, 14:18:08.551, 1547011088551
154, -7161.03, -7095.16, -7055.80, -7196.23, -149442.48, -118342.23, -141380.88, -145138.98, 0.042, -0.002, 1.036, 14:18:08.551, 1547011088551
155, -7159.87, -7094.04, -7054.72, -7195.18, -149441.41, -118341.15, -141379.78, -145137.81, 0.000, 0.000, 0.000, 14:18:08.551, 1547011088551
156, -7162.53, -7096.66, -7057.32, -7197.80, -149444.14, -118343.72, -141382.42, -145140.38, 0.000, 0.000, 0.000, 14:18:08.552, 1547011088552
157, -7163.67, -7097.84, -7058.43, -7198.80, -149445.33, -118344.81, -141383.55, -145141.41, 0.000, 0.000, 0.000, 14:18:08.552, 1547011088552
158, -7166.37, -7100.59, -7061.03, -7201.58, -149448.09, -118347.70, -141386.36, -145144.27, 0.000, 0.000, 0.000, 14:18:08.552, 1547011088552
159, -7166.55, -7100.81, -7061.21, -7201.78, -149448.09, -118347.77, -141386.41, -145144.44, 0.000, 0.000, 0.000, 14:18:08.553, 1547011088553
160, -7164.74, -7099.00, -7059.44, -7199.97, -149446.23, -118345.93, -141384.44, -145142.52, 0.000, 0.000, 0.000, 14:18:08.553, 1547011088553
161, -7163.53, -7097.66, -7058.14, -7198.76, -149444.94, -118344.52, -141383.16, -145141.14, 0.000, 0.000, 0.000, 14:18:08.553, 1547011088553
162, -7162.57, -7096.66, -7057.21, -7197.71, -149444.00, -118343.54, -141382.17, -145140.25, 0.000, 0.000, 0.000, 14:18:08.553, 1547011088553
163, -7163.33, -7097.48, -7058.01, -7198.54, -149444.89, -118344.48, -141383.11, -145141.20, 0.042, -0.002, 1.036, 14:18:08.553, 1547011088553
164, -7164.34, -7098.49, -7058.90, -7199.54, -149445.81, -118345.42, -141384.03, -145142.05, 0.000, 0.000, 0.000, 14:18:08.553, 1547011088553
165, -7166.13, -7100.05, -7060.58, -7201.24, -149447.56, -118347.12, -141385.70, -145143.70, 0.000, 0.000, 0.000, 14:18:08.553, 1547011088553
166, -7167.35, -7101.24, -7061.90, -7202.38, -149448.67, -118348.30, -141386.88, -145144.75, 0.000, 0.000, 0.000, 14:18:08.554, 1547011088554
167, -7166.68, -7100.68, -7061.25, -7201.73, -149447.88, -118347.54, -141386.20, -145144.09, 0.000, 0.000, 0.000, 14:18:08.554, 1547011088554
168, -7164.74, -7098.85, -7059.28, -7199.88, -149446.03, -118345.62, -141384.41, -145142.39, 0.000, 0.000, 0.000, 14:18:08.554, 1547011088554
169, -7161.66, -7095.70, -7056.15, -7196.79, -149442.94, -118342.58, -141381.28, -145139.23, 0.000, 0.000, 0.000, 14:18:08.554, 1547011088554
170, -7161.25, -7095.25, -7055.80, -7196.35, -149442.55, -118342.23, -141380.80, -145138.77, 0.000, 0.000, 0.000, 14:18:08.554, 1547011088554
171, -7159.98, -7094.00, -7054.57, -7195.12, -149441.33, -118340.93, -141379.45, -145137.41, 0.000, 0.000, 0.000, 14:18:08.554, 1547011088554
172, -7161.10, -7095.09, -7055.64, -7196.26, -149442.44, -118342.05, -141380.61, -145138.56, 0.000, 0.000, 0.000, 14:18:08.554, 1547011088554
173, -7162.04, -7096.05, -7056.49, -7197.24, -149443.44, -118343.12, -141381.73, -145139.61, 0.044, -0.004, 1.038, 14:18:08.554, 1547011088554
174, -7161.70, -7095.83, -7056.20, -7196.97, -149443.11, -118342.80, -141381.31, -145139.42, 0.000, 0.000, 0.000, 14:18:08.555, 1547011088555
175, -7162.75, -7096.81, -7057.21, -7197.98, -149444.08, -118343.79, -141382.36, -145140.33, 0.000, 0.000, 0.000, 14:18:08.555, 1547011088555
176, -7162.59, -7096.61, -7057.07, -7197.71, -149443.89, -118343.50, -141382.17, -145140.05, 0.000, 0.000, 0.000, 14:18:08.555, 1547011088555
177, -7160.78, -7094.76, -7055.33, -7195.96, -149442.11, -118341.69, -141380.45, -145138.16, 0.000, 0.000, 0.000, 14:18:08.555, 1547011088555
178, -7160.87, -7094.87, -7055.40, -7196.17, -149442.31, -118341.95, -141380.66, -145138.50, 0.000, 0.000, 0.000, 14:18:08.555, 1547011088555
179, -7161.01, -7095.05, -7055.57, -7196.39, -149442.42, -118342.05, -141380.72, -145138.61, 0.000, 0.000, 0.000, 14:18:08.555, 1547011088555
180, -7160.36, -7094.40, -7054.93, -7195.76, -149441.75, -118341.40, -141380.08, -145138.00, 0.000, 0.000, 0.000, 14:18:08.555, 1547011088555
181, -7160.14, -7094.09, -7054.63, -7195.38, -149441.44, -118341.06, -141379.72, -145137.56, 0.000, 0.000, 0.000, 14:18:08.555, 1547011088555
182, -7161.30, -7095.27, -7055.71, -7196.46, -149442.50, -118342.11, -141380.77, -145138.64, 0.000, 0.000, 0.000, 14:18:08.555, 1547011088555
183, -7161.23, -7095.31, -7055.71, -7196.57, -149442.66, -118342.36, -141381.00, -145138.83, 0.040, 0.004, 1.038, 14:18:08.557, 1547011088557
184, -7160.81, -7094.91, -7055.26, -7196.12, -149442.16, -118341.80, -141380.44, -145138.28, 0.000, 0.000, 0.000, 14:18:08.558, 1547011088558
185, -7160.76, -7094.91, -7055.31, -7196.19, -149441.95, -118341.73, -141380.30, -145138.13, 0.000, 0.000, 0.000, 14:18:08.558, 1547011088558
186, -7157.03, -7091.00, -7051.51, -7192.34, -149438.14, -118337.93, -141376.48, -145134.20, 0.000, 0.000, 0.000, 14:18:08.558, 1547011088558
187, -7154.82, -7088.79, -7049.27, -7190.09, -149436.03, -118335.72, -141374.33, -145132.16, 0.000, 0.000, 0.000, 14:18:08.558, 1547011088558
188, -7155.28, -7089.46, -7049.90, -7190.67, -149436.77, -118336.48, -141375.14, -145132.91, 0.000, 0.000, 0.000, 14:18:08.558, 1547011088558
189, -7156.29, -7090.40, -7050.88, -7191.63, -149437.61, -118337.33, -141375.98, -145133.73, 0.000, 0.000, 0.000, 14:18:08.558, 1547011088558
190, -7158.21, -7092.30, -7052.73, -7193.48, -149439.52, -118339.25, -141377.80, -145135.58, 0.000, 0.000, 0.000, 14:18:08.558, 1547011088558
191, -7159.08, -7093.12, -7053.67, -7194.42, -149440.50, -118340.13, -141378.67, -145136.42, 0.000, 0.000, 0.000, 14:18:08.559, 1547011088559
192, -7158.53, -7092.54, -7052.94, -7193.80, -149439.83, -118339.45, -141378.06, -145135.89, 0.000, 0.000, 0.000, 14:18:08.559, 1547011088559
193, -7157.99, -7092.14, -7052.44, -7193.46, -149439.44, -118339.12, -141377.66, -145135.45, 0.046, 0.002, 1.038, 14:18:08.559, 1547011088559
194, -7158.32, -7092.43, -7052.85, -7193.71, -149439.64, -118339.27, -141377.81, -145135.55, 0.000, 0.000, 0.000, 14:18:08.559, 1547011088559
195, -7159.35, -7093.37, -7053.79, -7194.69, -149440.61, -118340.21, -141378.83, -145136.58, 0.000, 0.000, 0.000, 14:18:08.559, 1547011088559
196, -7157.74, -7091.81, -7052.27, -7193.10, -149438.94, -118338.54, -141377.17, -145134.98, 0.000, 0.000, 0.000, 14:18:08.559, 1547011088559
197, -7156.22, -7090.22, -7050.70, -7191.54, -149437.44, -118336.99, -141375.56, -145133.36, 0.000, 0.000, 0.000, 14:18:08.559, 1547011088559
198, -7156.89, -7090.91, -7051.33, -7192.39, -149438.23, -118337.80, -141376.45, -145134.20, 0.000, 0.000, 0.000, 14:18:08.560, 1547011088560
199, -7155.11, -7089.15, -7049.49, -7190.53, -149436.42, -118336.03, -141374.72, -145132.38, 0.000, 0.000, 0.000, 14:18:08.560, 1547011088560
200, -7156.69, -7090.73, -7051.13, -7192.03, -149438.11, -118337.66, -141376.30, -145133.98, 0.000, 0.000, 0.000, 14:18:08.560, 1547011088560
201, -7159.35, -7093.37, -7053.81, -7194.65, -149440.66, -118340.23, -141378.88, -145136.56, 0.000, 0.000, 0.000, 14:18:08.560, 1547011088560
202, -7161.21, -7095.27, -7055.71, -7196.57, -149442.44, -118341.95, -141380.67, -145138.34, 0.000, 0.000, 0.000, 14:18:08.560, 1547011088560
203, -7161.39, -7095.36, -7055.82, -7196.90, -149442.73, -118342.31, -141380.97, -145138.67, 0.044, -0.002, 1.040, 14:18:08.561, 1547011088561
204, -7161.41, -7095.43, -7055.86, -7196.97, -149442.73, -118342.29, -141381.02, -145138.75, 0.000, 0.000, 0.000, 14:18:08.561, 1547011088561
205, -7161.21, -7095.31, -7055.75, -7196.75, -149442.59, -118342.16, -141380.92, -145138.61, 0.000, 0.000, 0.000, 14:18:08.562, 1547011088562
206, -7160.25, -7094.31, -7054.79, -7195.74, -149441.67, -118341.20, -141379.83, -145137.56, 0.000, 0.000, 0.000, 14:18:08.575, 1547011088575
207, -7160.43, -7094.47, -7054.97, -7195.90, -149441.83, -118341.35, -141379.94, -145137.72, 0.000, 0.000, 0.000, 14:18:08.576, 1547011088576
208, -7162.44, -7096.52, -7056.92, -7198.02, -149443.94, -118343.56, -141382.13, -145139.95, 0.000, 0.000, 0.000, 14:18:08.576, 1547011088576
209, -7162.97, -7097.10, -7057.25, -7198.49, -149444.41, -118344.05, -141382.67, -145140.38, 0.000, 0.000, 0.000, 14:18:08.576, 1547011088576
210, -7162.97, -7097.01, -7057.32, -7198.47, -149444.36, -118343.88, -141382.63, -145140.28, 0.000, 0.000, 0.000, 14:18:08.577, 1547011088577
211, -7162.75, -7096.83, -7057.09, -7198.29, -149444.14, -118343.52, -141382.36, -145140.05, 0.000, 0.000, 0.000, 14:18:08.578, 1547011088578
212, -7161.14, -7095.31, -7055.66, -7196.68, -149442.53, -118341.93, -141380.75, -145138.45, 0.000, 0.000, 0.000, 14:18:08.578, 1547011088578
213, -7161.63, -7095.76, -7056.18, -7197.10, -149443.09, -118342.67, -141381.33, -145139.13, 0.044, 0.000, 1.038, 14:18:08.579, 1547011088579
214, -7162.73, -7096.83, -7057.27, -7198.20, -149444.23, -118343.68, -141382.42, -145140.16, 0.000, 0.000, 0.000, 14:18:08.579, 1547011088579
215, -7164.02, -7098.18, -7058.64, -7199.61, -149445.53, -118345.04, -141383.81, -145141.41, 0.000, 0.000, 0.000, 14:18:08.580, 1547011088580
216, -7161.97, -7096.14, -7056.65, -7197.53, -149443.36, -118342.89, -141381.69, -145139.06, 0.000, 0.000, 0.000, 14:18:08.580, 1547011088580
217, -7160.07, -7094.26, -7054.63, -7195.56, -149441.34, -118340.86, -141379.56, -145137.05, 0.000, 0.000, 0.000, 14:18:08.581, 1547011088581
218, -7159.73, -7093.86, -7054.25, -7195.27, -149441.14, -118340.66, -141379.34, -145136.91, 0.000, 0.000, 0.000, 14:18:08.581, 1547011088581
219, -7160.85, -7094.89, -7055.42, -7196.41, -149442.22, -118341.66, -141380.41, -145138.03, 0.000, 0.000, 0.000, 14:18:08.582, 1547011088582
220, -7162.95, -7097.01, -7057.56, -7198.60, -149444.36, -118343.79, -141382.47, -145140.09, 0.000, 0.000, 0.000, 14:18:08.582, 1547011088582
221, -7160.47, -7094.51, -7054.97, -7196.01, -149441.83, -118341.15, -141379.81, -145137.45, 0.000, 0.000, 0.000, 14:18:08.583, 1547011088583
222, -7160.52, -7094.56, -7054.88, -7195.99, -149441.83, -118341.09, -141379.72, -145137.41, 0.044, 0.000, 1.040, 14:18:08.583, 1547011088583
223, -7160.69, -7094.80, -7055.15, -7196.30, -149442.27, -118341.53, -141380.25, -145137.92, 0.000, 0.000, 0.000, 14:18:08.583, 1547011088583
224, -7162.15, -7096.25, -7056.58, -7197.73, -149443.72, -118343.01, -141381.73, -145139.30, 0.000, 0.000, 0.000, 14:18:08.584, 1547011088584
225, -7163.56, -7097.60, -7057.97, -7199.12, -149445.05, -118344.41, -141383.03, -145140.73, 0.000, 0.000, 0.000, 14:18:08.998, 1547011088998
226, -7165.10, -7099.16, -7059.49, -7200.66, -149446.58, -118345.87, -141384.66, -145142.20, 0.000, 0.000, 0.000, 14:18:08.999, 1547011088999
227, -7165.23, -7099.29, -7059.66, -7200.90, -149446.69, -118345.93, -141384.70, -145142.33, 0.000, 0.000, 0.000, 14:18:08.999, 1547011088999
228, -7165.01, -7099.07, -7059.42, -7200.73, -149446.64, -118345.87, -141384.75, -145142.30, 0.000, 0.000, 0.000, 14:18:08.999, 1547011088999
229, -7161.16, -7095.11, -7055.55, -7196.73, -149442.66, -118341.98, -141380.80, -145138.16, 0.000, 0.000, 0.000, 14:18:09.000, 1547011089000
230, -7160.36, -7094.35, -7054.86, -7195.92, -149441.83, -118341.11, -141379.94, -145137.34, 0.000, 0.000, 0.000, 14:18:09.000, 1547011089000
231, -7160.90, -7094.94, -7055.35, -7196.46, -149442.34, -118341.62, -141380.41, -145137.81, 0.000, 0.000, 0.000, 14:18:09.002, 1547011089002
232, -7161.05, -7095.11, -7055.51, -7196.73, -149442.34, -118341.64, -141380.52, -145137.97, 0.040, 0.000, 1.038, 14:18:09.004, 1547011089004
233, -7161.12, -7095.20, -7055.48, -7196.88, -149442.47, -118341.87, -141380.67, -145138.19, 0.000, 0.000, 0.000, 14:18:09.006, 1547011089006
234, -7159.80, -7093.80, -7054.08, -7195.47, -149441.05, -118340.46, -141379.20, -145136.75, 0.000, 0.000, 0.000, 14:18:09.009, 1547011089009
235, -7159.69, -7093.77, -7054.14, -7195.38, -149441.02, -118340.37, -141379.06, -145136.52, 0.000, 0.000, 0.000, 14:18:09.010, 1547011089010
236, -7159.02, -7093.24, -7053.63, -7194.80, -149440.05, -118339.43, -141378.11, -145135.53, 0.000, 0.000, 0.000, 14:18:09.012, 1547011089012
237, -7158.64, -7092.77, -7053.25, -7194.29, -149439.64, -118339.01, -141377.75, -145135.17, 0.000, 0.000, 0.000, 14:18:09.013, 1547011089013
238, -7158.17, -7092.48, -7052.89, -7193.95, -149439.80, -118339.02, -141377.81, -145135.28, 0.000, 0.000, 0.000, 14:18:09.016, 1547011089016
239, -7159.31, -7093.71, -7053.94, -7195.23, -149440.98, -118340.21, -141378.95, -145136.44, 0.000, 0.000, 0.000, 14:18:09.017, 1547011089017
240, -7158.93, -7093.30, -7053.47, -7194.78, -149440.50, -118339.79, -141378.53, -145135.91, 0.000, 0.000, 0.000, 14:18:09.018, 1547011089018
241, -7158.46, -7092.79, -7053.03, -7194.27, -149440.00, -118339.20, -141378.05, -145135.30, 0.000, 0.000, 0.000, 14:18:09.019, 1547011089019
242, -7158.75, -7093.06, -7053.29, -7194.58, -149440.20, -118339.48, -141378.31, -145135.50, 0.040, -0.004, 1.040, 14:18:09.021, 1547011089021
243, -7158.79, -7093.10, -7053.32, -7194.69, -149440.39, -118339.77, -141378.56, -145135.81, 0.000, 0.000, 0.000, 14:18:09.022, 1547011089022
244, -7157.59, -7091.72, -7052.06, -7193.39, -149439.09, -118338.38, -141377.17, -145134.44, 0.000, 0.000, 0.000, 14:18:09.023, 1547011089023
245, -7158.57, -7092.59, -7052.96, -7194.22, -149440.05, -118339.23, -141378.05, -145135.30, 0.000, 0.000, 0.000, 14:18:09.023, 1547011089023
246, -7161.19, -7095.27, -7055.64, -7196.90, -149442.69, -118341.91, -141380.64, -145137.94, 0.000, 0.000, 0.000, 14:18:09.023, 1547011089023
247, -7159.91, -7094.15, -7054.41, -7195.76, -149441.25, -118340.63, -141379.36, -145136.56, 0.000, 0.000, 0.000, 14:18:09.024, 1547011089024
248, -7160.90, -7095.20, -7055.42, -7196.84, -149442.48, -118341.80, -141380.50, -145137.88, 0.000, 0.000, 0.000, 14:18:09.024, 1547011089024
249, -7161.86, -7096.12, -7056.38, -7197.84, -149443.38, -118342.63, -141381.42, -145138.77, 0.000, 0.000, 0.000, 14:18:09.025, 1547011089025
250, -7161.70, -7096.03, -7056.29, -7197.75, -149443.28, -118342.52, -141381.31, -145138.67, 0.000, 0.000, 0.000, 14:18:09.025, 1547011089025
251, -7162.04, -7096.39, -7056.69, -7198.07, -149443.58, -118342.89, -141381.70, -145138.98, 0.000, 0.000, 0.000, 14:18:09.025, 1547011089025
252, -7161.19, -7095.43, -7055.75, -7197.08, -149442.58, -118341.82, -141380.67, -145137.94, 0.042, -0.002, 1.036, 14:18:09.025, 1547011089025
253, -7161.59, -7095.83, -7056.04, -7197.46, -149443.06, -118342.31, -141381.27, -145138.59, 0.000, 0.000, 0.000, 14:18:09.025, 1547011089025
254, -7158.95, -7093.30, -7053.52, -7194.83, -149440.45, -118339.77, -141378.63, -145135.92, 0.000, 0.000, 0.000, 14:18:09.025, 1547011089025
255, -7159.08, -7093.35, -7053.47, -7194.91, -149440.41, -118339.67, -141378.56, -145135.75, 0.000, 0.000, 0.000, 14:18:09.026, 1547011089026
0, -7159.17, -7093.35, -7053.70, -7195.00, -149440.56, -118339.81, -141378.64, -145135.75, 0.000, 0.000, 0.000, 14:18:09.026, 1547011089026
1, -7159.00, -7093.21, -7053.52, -7194.85, -149440.41, -118339.61, -141378.52, -145135.70, 0.000, 0.000, 0.000, 14:18:09.026, 1547011089026
2, -7160.67, -7094.94, -7055.10, -7196.57, -149442.11, -118341.38, -141380.30, -145137.58, 0.000, 0.000, 0.000, 14:18:09.027, 1547011089027
3, -7161.48, -7095.81, -7056.02, -7197.51, -149443.05, -118342.29, -141381.19, -145138.36, 0.000, 0.000, 0.000, 14:18:09.027, 1547011089027
4, -7160.74, -7095.11, -7055.33, -7196.79, -149442.23, -118341.55, -141380.33, -145137.58, 0.000, 0.000, 0.000, 14:18:09.027, 1547011089027
5, -7160.43, -7094.76, -7054.97, -7196.35, -149441.83, -118341.02, -141379.92, -145137.09, 0.000, 0.000, 0.000, 14:18:09.027, 1547011089027
6, -7160.47, -7094.69, -7055.02, -7196.32, -149441.83, -118340.99, -141379.86, -145136.98, 0.044, 0.000, 1.036, 14:18:09.027, 1547011089027
7, -7160.63, -7094.73, -7055.02, -7196.37, -149442.02, -118341.20, -141380.17, -145137.27, 0.000, 0.000, 0.000, 14:18:09.027, 1547011089027
8, -7162.08, -7096.21, -7056.45, -7197.86, -149443.52, -118342.60, -141381.53, -145138.67, 0.000, 0.000, 0.000, 14:18:09.027, 1547011089027
9, -7163.09, -7097.17, -7057.32, -7198.83, -149444.50, -118343.54, -141382.44, -145139.61, 0.000, 0.000, 0.000, 14:18:09.027, 1547011089027
10, -7161.01, -7095.02, -7055.31, -7196.61, -149442.33, -118341.40, -141380.23, -145137.50, 0.000, 0.000, 0.000, 14:18:09.028, 1547011089028
11, -7160.43, -7094.58, -7054.81, -7196.05, -149441.77, -118340.91, -141379.72, -145136.80, 0.000, 0.000, 0.000, 14:18:09.028, 1547011089028
12, -7160.09, -7094.29, -7054.41, -7195.76, -149441.44, -118340.66, -141379.52, -145136.63, 0.000, 0.000, 0.000, 14:18:09.029, 1547011089029
13, -7160.92, -7095.14, -7055.26, -7196.48, -149442.23, -118341.35, -141380.30, -145137.45, 0.000, 0.000, 0.000, 14:18:09.030, 1547011089030
14, -7162.53, -7096.72, -7056.89, -7197.95, -149443.80, -118342.94, -141381.86, -145138.97, 0.000, 0.000, 0.000, 14:18:09.030, 1547011089030
15, -7159.51, -7093.62, -7053.85, -7194.85, -149440.73, -118339.83, -141378.72, -145135.89, 0.046, 0.002, 1.038, 14:18:09.031, 1547011089031
16, -7157.92, -7092.01, -7052.13, -7193.24, -149439.09, -118338.22, -141377.03, -145134.16, 0.000, 0.000, 0.000, 14:18:09.031, 1547011089031
17, -7158.41, -7092.59, -7052.62, -7193.86, -149439.64, -118338.83, -141377.70, -145134.72, 0.000, 0.000, 0.000, 14:18:09.031, 1547011089031
18, -7159.35, -7093.53, -7053.63, -7194.78, -149440.63, -118339.77, -141378.59, -145135.70, 0.000, 0.000, 0.000, 14:18:09.031, 1547011089031
19, -7158.37, -7092.43, -7052.53, -7193.66, -149439.52, -118338.60, -141377.55, -145134.52, 0.000, 0.000, 0.000, 14:18:09.031, 1547011089031
20, -7158.64, -7092.57, -7052.76, -7193.82, -149439.36, -118338.52, -141377.33, -145134.25, 0.000, 0.000, 0.000, 14:18:09.031, 1547011089031
21, -7156.27, -7090.20, -7050.48, -7191.38, -149436.98, -118336.13, -141375.03, -145131.86, 0.000, 0.000, 0.000, 14:18:09.031, 1547011089031
22, -7156.78, -7090.96, -7051.08, -7192.03, -149437.92, -118336.99, -141375.94, -145132.95, 0.000, 0.000, 0.000, 14:18:09.031, 1547011089031
23, -7159.91, -7094.04, -7054.14, -7195.05, -149440.83, -118339.95, -141378.84, -145135.89, 0.000, 0.000, 0.000, 14:18:09.032, 1547011089032
24, -7161.66, -7095.81, -7055.89, -7196.73, -149442.89, -118341.89, -141380.72, -145137.83, 0.000, 0.000, 0.000, 14:18:09.032, 1547011089032
25, -7161.36, -7095.36, -7055.51, -7196.39, -149442.58, -118341.62, -141380.39, -145137.41, 0.048, 0.002, 1.036, 14:18:09.032, 1547011089032
26, -7162.44, -7096.41, -7056.49, -7197.40, -149443.47, -118342.49, -141381.34, -145138.33, 0.000, 0.000, 0.000, 14:18:09.032, 1547011089032
27, -7159.91, -7094.09, -7054.12, -7194.98, -149441.20, -118340.23, -141379.06, -145136.17, 0.000, 0.000, 0.000, 14:18:09.032, 1547011089032
28, -7157.63, -7091.87, -7051.91, -7192.70, -149438.97, -118337.93, -141376.80, -145133.94, 0.000, 0.000, 0.000, 14:18:09.032, 1547011089032
29, -7159.24, -7093.35, -7053.43, -7194.27, -149440.34, -118339.41, -141378.25, -145135.28, 0.000, 0.000, 0.000, 14:18:09.032, 1547011089032
30, -7158.68, -7092.72, -7052.78, -7193.55, -149439.72, -118338.73, -141377.66, -145134.61, 0.000, 0.000, 0.000, 14:18:09.032, 1547011089032
31, -7158.41, -7092.34, -7052.44, -7193.01, -149439.47, -118338.38, -141377.27, -145134.28, 0.000, 0.000, 0.000, 14:18:09.033, 1547011089033
32, -7158.70, -7092.68, -7052.76, -7193.39, -149439.91, -118338.96, -141377.73, -145134.81, 0.000, 0.000, 0.000, 14:18:09.033, 1547011089033
33, -7158.86, -7092.99, -7053.00, -7193.64, -149440.06, -118339.23, -141377.95, -145135.03, 0.000, 0.000, 0.000, 14:18:09.033, 1547011089033
34, -7160.38, -7094.69, -7054.63, -7195.23, -149441.55, -118340.66, -141379.45, -145136.52, 0.000, 0.000, 0.000, 14:18:09.033, 1547011089033
35, -7161.52, -7095.76, -7055.71, -7196.26, -149442.58, -118341.62, -141380.50, -145137.45, 0.048, 0.004, 1.038, 14:18:09.033, 1547011089033
36, -7161.86, -7096.19, -7056.15, -7196.57, -149442.95, -118341.91, -141380.83, -145137.78, 0.000, 0.000, 0.000, 14:18:09.033, 1547011089033
37, -7162.88, -7097.15, -7057.14, -7197.64, -149444.11, -118343.12, -141382.02, -145138.97, 0.000, 0.000, 0.000, 14:18:09.033, 1547011089033
38, -7162.77, -7096.95, -7057.03, -7197.53, -149443.98, -118342.98, -141381.86, -145138.72, 0.000, 0.000, 0.000, 14:18:09.034, 1547011089034
39, -7161.66, -7095.76, -7055.77, -7196.23, -149442.69, -118341.73, -141380.66, -145137.45, 0.000, 0.000, 0.000, 14:18:09.034, 1547011089034
40, -7160.94, -7094.98, -7055.02, -7195.38, -149442.00, -118340.91, -141379.86, -145136.72, 0.000, 0.000, 0.000, 14:18:09.034, 1547011089034
41, -7160.36, -7094.38, -7054.48, -7194.80, -149441.39, -118340.28, -141379.23, -145136.02, 0.000, 0.000, 0.000, 14:18:09.034, 1547011089034
42, -7160.65, -7094.73, -7054.86, -7195.29, -149441.81, -118340.86, -141379.66, -145136.59, 0.000, 0.000, 0.000, 14:18:09.034, 1547011089034
43, -7161.36, -7095.43, -7055.60, -7196.01, -149442.55, -118341.55, -141380.39, -145137.30, 0.000, 0.000, 0.000, 14:18:09.034, 1547011089034
44, -7159.82, -7093.88, -7053.99, -7194.27, -149440.86, -118339.81, -141378.72, -145135.55, 0.000, 0.000, 0.000, 14:18:09.035, 1547011089035
45, -7159.67, -7093.64, -7053.85, -7194.00, -149440.70, -118339.54, -141378.48, -145135.33, 0.048, 0.002, 1.042, 14:18:09.035, 1547011089035
46, -7157.97, -7091.98, -7052.15, -7192.28, -149439.00, -118337.80, -141376.77, -145133.50, 0.000, 0.000, 0.000, 14:18:09.035, 1547011089035
47, -7156.98, -7090.98, -7051.01, -7191.23, -149438.08, -118336.97, -141375.92, -145132.73, 0.000, 0.000, 0.000, 14:18:09.059, 1547011089059
48, -7157.41, -7091.45, -7051.51, -7191.65, -149438.45, -118337.41, -141376.39, -145133.14, 0.000, 0.000, 0.000, 14:18:09.060, 1547011089060
49, -7157.43, -7091.52, -7051.60, -7191.76, -149438.61, -118337.51, -141376.41, -145133.27, 0.000, 0.000, 0.000, 14:18:09.066, 1547011089066
50, -7157.63, -7091.74, -7051.82, -7191.99, -149438.78, -118337.62, -141376.50, -145133.38, 0.000, 0.000, 0.000, 14:18:09.069, 1547011089069
51, -7158.21, -7092.23, -7052.33, -7192.39, -149439.09, -118338.05, -141376.92, -145133.84, 0.000, 0.000, 0.000, 14:18:09.071, 1547011089071
52, -7160.29, -7094.38, -7054.48, -7194.45, -149441.30, -118340.32, -141379.27, -145136.08, 0.000, 0.000, 0.000, 14:18:09.071, 1547011089071
53, -7157.97, -7092.03, -7052.18, -7192.10, -149439.05, -118337.93, -141377.03, -145133.69, 0.000, 0.000, 0.000, 14:18:09.071, 1547011089071
54, -7156.63, -7090.71, -7050.79, -7190.73, -149437.56, -118336.45, -141375.50, -145132.16, 0.000, 0.000, 0.000, 14:18:09.073, 1547011089073
55, -7156.96, -7091.00, -7051.06, -7191.07, -149437.92, -118336.79, -141375.72, -145132.42, 0.048, 0.002, 1.044, 14:18:09.074, 1547011089074
56, -7156.60, -7090.58, -7050.68, -7190.65, -149437.55, -118336.37, -141375.34, -145132.05, 0.000, 0.000, 0.000, 14:18:09.074, 1547011089074
57, -7157.45, -7091.52, -7051.57, -7191.54, -149438.48, -118337.40, -141376.33, -145133.05, 0.000, 0.000, 0.000, 14:18:09.074, 1547011089074
58, -7159.80, -7093.82, -7053.90, -7193.82, -149440.83, -118339.72, -141378.59, -145135.33, 0.000, 0.000, 0.000, 14:18:09.075, 1547011089075
59, -7161.72, -7095.81, -7055.82, -7195.70, -149442.69, -118341.58, -141380.52, -145137.16, 0.000, 0.000, 0.000, 14:18:09.075, 1547011089075
60, -7160.36, -7094.35, -7054.52, -7194.36, -149440.98, -118339.90, -141378.84, -145135.58, 0.000, 0.000, 0.000, 14:18:09.076, 1547011089076
61, -7160.90, -7094.82, -7055.13, -7194.74, -149441.36, -118340.28, -141379.23, -145135.89, 0.000, 0.000, 0.000, 14:18:09.077, 1547011089077
62, -7160.52, -7094.49, -7054.77, -7194.45, -149441.09, -118340.05, -141378.91, -145135.59, 0.000, 0.000, 0.000, 14:18:09.078, 1547011089078
63, -7158.70, -7092.68, -7052.87, -7192.61, -149439.56, -118338.36, -141377.27, -145134.00, 0.000, 0.000, 0.000, 14:18:09.078, 1547011089078
64, -7159.02, -7092.95, -7053.14, -7192.86, -149440.00, -118338.73, -141377.73, -145134.41, 0.044, 0.004, 1.044, 14:18:09.078, 1547011089078
65, -7157.97, -7092.03, -7052.24, -7191.92, -149439.09, -118337.82, -141376.77, -145133.42, 0.000, 0.000, 0.000, 14:18:09.078, 1547011089078
66, -7157.77, -7091.92, -7052.04, -7191.67, -149438.75, -118337.51, -141376.48, -145133.16, 0.000, 0.000, 0.000, 14:18:09.078, 1547011089078
67, -7158.73, -7092.70, -7052.91, -7192.59, -149439.75, -118338.55, -141377.48, -145134.36, 0.000, 0.000, 0.000, 14:18:09.078, 1547011089078
68, -7159.06, -7093.04, -7053.23, -7192.90, -149440.09, -118338.98, -141377.91, -145134.63, 0.000, 0.000, 0.000, 14:18:09.079, 1547011089079
69, -7158.86, -7092.90, -7052.96, -7192.63, -149439.88, -118338.76, -141377.75, -145134.36, 0.000, 0.000, 0.000, 14:18:09.079, 1547011089079
70, -7159.51, -7093.46, -7053.58, -7193.19, -149440.50, -118339.23, -141378.22, -145134.88, 0.000, 0.000, 0.000, 14:18:09.079, 1547011089079
71, -7159.33, -7093.28, -7053.45, -7192.99, -149440.27, -118339.05, -141377.95, -145134.61, 0.000, 0.000, 0.000, 14:18:09.079, 1547011089079
72, -7158.70, -7092.70, -7052.85, -7192.48, -149439.69, -118338.54, -141377.55, -145134.20, 0.000, 0.000, 0.000, 14:18:09.079, 1547011089079
73, -7159.17, -7093.12, -7053.27, -7192.86, -149440.05, -118338.94, -141377.94, -145134.55, 0.000, 0.000, 0.000, 14:18:09.079, 1547011089079
74, -7159.40, -7093.30, -7053.45, -7192.95, -149440.27, -118339.20, -141378.05, -145134.81, 0.046, 0.000, 1.048, 14:18:09.079, 1547011089079
75, -7157.43, -7091.29, -7051.53, -7190.98, -149438.30, -118337.20, -141376.09, -145132.80, 0.000, 0.000, 0.000, 14:18:09.079, 1547011089079
76, -7155.98, -7089.84, -7050.16, -7189.44, -149436.81, -118335.63, -141374.58, -145131.19, 0.000, 0.000, 0.000, 14:18:09.080, 1547011089080
77, -7158.53, -7092.41, -7052.69, -7192.03, -149439.53, -118338.34, -141377.28, -145134.03, 0.000, 0.000, 0.000, 14:18:09.080, 1547011089080
78, -7159.35, -7093.37, -7053.52, -7192.88, -149440.42, -118339.25, -141378.20, -145134.91, 0.000, 0.000, 0.000, 14:18:09.080, 1547011089080
79, -7158.64, -7092.63, -7052.82, -7192.14, -149439.59, -118338.49, -141377.34, -145134.09, 0.000, 0.000, 0.000, 14:18:09.080, 1547011089080
80, -7156.45, -7090.35, -7050.63, -7189.82, -149437.41, -118336.13, -141374.94, -145131.75, 0.000, 0.000, 0.000, 14:18:09.080, 1547011089080
81, -7154.21, -7088.12, -7048.42, -7187.56, -149435.20, -118333.80, -141372.75, -145129.38, 0.000, 0.000, 0.000, 14:18:09.080, 1547011089080
82, -7157.12, -7091.09, -7051.26, -7190.53, -149438.13, -118336.91, -141375.84, -145132.48, 0.000, 0.000, 0.000, 14:18:09.080, 1547011089080
83, -7158.12, -7092.05, -7052.13, -7191.58, -149439.11, -118337.89, -141376.83, -145133.53, 0.000, 0.000, 0.000, 14:18:09.080, 1547011089080
84, -7157.94, -7091.92, -7051.91, -7191.38, -149439.00, -118337.73, -141376.66, -145133.36, 0.038, -0.002, 1.044, 14:18:09.081, 1547011089081
85, -7157.27, -7091.25, -7051.39, -7190.62, -149438.38, -118337.09, -141375.94, -145132.53, 0.000, 0.000, 0.000, 14:18:09.081, 1547011089081
86, -7156.04, -7089.91, -7050.08, -7189.21, -149436.98, -118335.59, -141374.48, -145131.06, 0.000, 0.000, 0.000, 14:18:09.081, 1547011089081
87, -7159.33, -7093.37, -7053.45, -7192.66, -149440.55, -118339.20, -141378.11, -145134.77, 0.000, 0.000, 0.000, 14:18:09.081, 1547011089081
88, -7158.01, -7092.05, -7052.11, -7191.34, -149439.17, -118337.87, -141376.86, -145133.42, 0.000, 0.000, 0.000, 14:18:09.081, 1547011089081
89, -7157.63, -7091.63, -7051.73, -7190.91, -149438.66, -118337.38, -141376.36, -145132.89, 0.000, 0.000, 0.000, 14:18:09.081, 1547011089081
90, -7156.85, -7090.80, -7050.79, -7190.02, -149437.88, -118336.55, -141375.47, -145131.97, 0.000, 0.000, 0.000, 14:18:09.479, 1547011089479
91, -7154.70, -7088.70, -7048.78, -7187.85, -149435.64, -118334.31, -141373.19, -145129.73, 0.000, 0.000, 0.000, 14:18:09.479, 1547011089479
92, -7155.96, -7090.00, -7050.03, -7189.26, -149437.05, -118335.72, -141374.67, -145131.25, 0.000, 0.000, 0.000, 14:18:09.479, 1547011089479
93, -7157.81, -7091.76, -7051.77, -7190.98, -149438.86, -118337.53, -141376.41, -145133.06, 0.000, 0.000, 0.000, 14:18:09.479, 1547011089479
94, -7157.94, -7091.90, -7051.84, -7191.05, -149438.91, -118337.57, -141376.50, -145133.06, 0.044, -0.002, 1.038, 14:18:09.480, 1547011089480
95, -7158.77, -7092.70, -7052.67, -7191.76, -149439.59, -118338.22, -141377.22, -145133.72, 0.000, 0.000, 0.000, 14:18:09.480, 1547011089480
96, -7157.65, -7091.63, -7051.55, -7190.65, -149438.34, -118336.99, -141376.05, -145132.38, 0.000, 0.000, 0.000, 14:18:09.480, 1547011089480
97, -7156.83, -7090.78, -7050.68, -7189.89, -149437.64, -118336.41, -141375.38, -145131.80, 0.000, 0.000, 0.000, 14:18:09.480, 1547011089480
98, -7155.84, -7089.71, -7049.70, -7188.83, -149436.66, -118335.43, -141374.27, -145130.81, 0.000, 0.000, 0.000, 14:18:09.480, 1547011089480
99, -7156.56, -7090.53, -7050.50, -7189.51, -149437.34, -118336.05, -141374.91, -145131.45, 0.000, 0.000, 0.000, 14:18:09.480, 1547011089480
100, -7159.44, -7093.39, -7053.34, -7192.34, -149439.94, -118338.63, -141377.48, -145133.92, 0.000, 0.000, 0.000, 14:18:09.481, 1547011089481
101, -7158.86, -7092.68, -7052.62, -7191.58, -149439.27, -118337.91, -141376.77, -145133.09, 0.000, 0.000, 0.000, 14:18:09.481, 1547011089481
102, -7157.77, -7091.65, -7051.57, -7190.58, -149438.19, -118336.84, -141375.72, -145132.08, 0.000, 0.000, 0.000, 14:18:09.481, 1547011089481
103, -7156.09, -7089.95, -7049.99, -7189.01, -149436.88, -118335.43, -141374.38, -145130.77, 0.000, 0.000, 0.000, 14:18:09.481, 1547011089481
104, -7157.97, -7091.85, -7051.68, -7190.76, -149438.78, -118337.30, -141376.23, -145132.69, 0.044, 0.002, 1.036, 14:18:09.481, 1547011089481
105, -7159.06, -7092.97, -7052.80, -7191.76, -149439.64, -118338.22, -141377.14, -145133.56, 0.000, 0.000, 0.000, 14:18:09.481, 1547011089481
106, -7159.84, -7093.80, -7053.63, -7192.43, -149440.45, -118338.94, -141377.89, -145134.25, 0.000, 0.000, 0.000, 14:18:09.481, 1547011089481
107, -7161.01, -7095.02, -7054.84, -7193.66, -149441.67, -118340.32, -141379.27, -145135.66, 0.000, 0.000, 0.000, 14:18:09.481, 1547011089481
108, -7161.10, -7095.09, -7054.93, -7193.73, -149441.61, -118340.28, -141379.27, -145135.66, 0.000, 0.000, 0.000, 14:18:09.482, 1547011089482
109, -7161.07, -7095.14, -7054.88, -7193.77, -149441.56, -118340.21, -141379.19, -145135.61, 0.000, 0.000, 0.000, 14:18:09.482, 1547011089482
110, -7161.25, -7095.29, -7055.04, -7194.00, -149441.80, -118340.37, -141379.27, -145135.64, 0.000, 0.000, 0.000, 14:18:09.482, 1547011089482
111, -7160.81, -7094.80, -7054.55, -7193.28, -149441.13, -118339.67, -141378.56, -145134.81, 0.000, 0.000, 0.000, 14:18:09.482, 1547011089482
112, -7160.85, -7094.78, -7054.57, -7193.48, -149441.20, -118339.77, -141378.84, -145135.11, 0.000, 0.000, 0.000, 14:18:09.482, 1547011089482
113, -7160.69, -7094.58, -7054.46, -7193.33, -149441.09, -118339.66, -141378.72, -145135.06, 0.046, 0.002, 1.036, 14:18:09.482, 1547011089482
114, -7161.72, -7095.58, -7055.37, -7194.29, -149442.11, -118340.57, -141379.61, -145135.86, 0.000, 0.000, 0.000, 14:18:09.482, 1547011089482
115, -7160.98, -7094.82, -7054.52, -7193.44, -149441.17, -118339.66, -141378.73, -145134.95, 0.000, 0.000, 0.000, 14:18:09.482, 1547011089482
116, -7160.67, -7094.33, -7054.03, -7192.84, -149440.42, -118338.94, -141378.00, -145134.19, 0.000, 0.000, 0.000, 14:18:09.483, 1547011089483
117, -7161.25, -7095.00, -7054.68, -7193.60, -149441.23, -118339.67, -141378.78, -145135.06, 0.000, 0.000, 0.000, 14:18:09.483, 1547011089483
118, -7160.69, -7094.53, -7054.25, -7193.10, -149440.72, -118339.34, -141378.31, -145134.56, 0.000, 0.000, 0.000, 14:18:09.483, 1547011089483
119, -7161.54, -7095.38, -7055.13, -7193.95, -149441.50, -118340.16, -141378.95, -145135.33, 0.000, 0.000, 0.000, 14:18:09.483, 1547011089483
120, -7161.86, -7095.56, -7055.19, -7194.15, -149441.45, -118340.16, -141378.98, -145135.33, 0.000, 0.000, 0.000, 14:18:09.483, 1547011089483
121, -7160.81, -7094.49, -7054.08, -7192.99, -149440.22, -118338.89, -141377.80, -145133.94, 0.000, 0.000, 0.000, 14:18:09.483, 1547011089483
122, -7161.92, -7095.65, -7055.26, -7194.27, -149441.64, -118340.19, -141379.19, -145135.44, 0.000, 0.000, 0.000, 14:18:09.483, 1547011089483
123, -7165.34, -7099.20, -7058.75, -7197.75, -149445.14, -118343.74, -141382.63, -145138.92, 0.046, 0.002, 1.036, 14:18:09.483, 1547011089483
124, -7163.87, -7097.73, -7057.25, -7196.30, -149443.58, -118342.23, -141381.08, -145137.30, 0.000, 0.000, 0.000, 14:18:09.484, 1547011089484
125, -7163.58, -7097.35, -7056.76, -7195.88, -149443.11, -118341.59, -141380.64, -145136.73, 0.000, 0.000, 0.000, 14:18:09.484, 1547011089484
126, -7163.22, -7097.01, -7056.38, -7195.38, -149442.47, -118340.93, -141379.94, -145136.06, 0.000, 0.000, 0.000, 14:18:09.484, 1547011089484
127, -7162.73, -7096.54, -7055.95, -7195.00, -149442.06, -118340.59, -141379.56, -145135.75, 0.000, 0.000, 0.000, 14:18:09.485, 1547011089485
128, -7162.21, -7096.01, -7055.31, -7194.49, -149441.55, -118340.10, -141379.06, -145135.19, 0.000, 0.000, 0.000, 14:18:09.485, 1547011089485
129, -7163.11, -7096.90, -7056.24, -7195.34, -149442.28, -118340.84, -141379.89, -145135.91, 0.000, 0.000, 0.000, 14:18:09.485, 1547011089485
130, -7165.01, -7098.89, -7058.30, -7197.31, -149444.09, -118342.70, -141381.69, -145137.66, 0.000, 0.000, 0.000, 14:18:09.485, 1547011089485
131, -7165.61, -7099.50, -7058.81, -7197.84, -149444.52, -118343.03, -141381.95, -145137.89, 0.000, 0.000, 0.000, 14:18:09.486, 1547011089486
132, -7164.02, -7097.75, -7057.14, -7196.30, -149442.97, -118341.51, -141380.45, -145136.52, 0.000, 0.000, 0.000, 14:18:09.486, 1547011089486
133, -7162.93, -7096.68, -7056.02, -7195.16, -149441.91, -118340.39, -141379.45, -145135.50, 0.044, 0.004, 1.036, 14:18:09.486, 1547011089486
134, -7161.97, -7095.74, -7055.15, -7194.22, -149440.81, -118339.38, -141378.41, -145134.39, 0.000, 0.000, 0.000, 14:18:09.486, 1547011089486
135, -7162.86, -7096.59, -7056.04, -7195.00, -149441.55, -118340.13, -141379.16, -145135.08, 0.000, 0.000, 0.000, 14:18:09.486, 1547011089486
136, -7162.15, -7095.87, -7055.08, -7194.02, -149440.45, -118338.89, -141377.89, -145133.92, 0.000, 0.000, 0.000, 14:18:09.487, 1547011089487
137, -7161.79, -7095.49, -7054.77, -7193.84, -149440.27, -118338.73, -141377.80, -145133.77, 0.000, 0.000, 0.000, 14:18:09.487, 1547011089487
138, -7164.45, -7098.18, -7057.59, -7196.70, -149443.09, -118341.55, -141380.64, -145136.53, 0.000, 0.000, 0.000, 14:18:09.487, 1547011089487
139, -7165.81, -7099.45, -7058.79, -7198.04, -149444.30, -118342.70, -141381.70, -145137.61, 0.000, 0.000, 0.000, 14:18:09.488, 1547011089488
140, -7165.34, -7099.09, -7058.21, -7197.37, -149443.28, -118341.77, -141380.75, -145136.56, 0.000, 0.000, 0.000, 14:18:09.490, 1547011089490
141, -7167.73, -7101.42, -7060.45, -7199.43, -149445.25, -118343.79, -141382.73, -145138.41, 0.000, 0.000, 0.000, 14:18:09.490, 1547011089490
142, -7168.58, -7102.36, -7061.43, -7200.46, -149446.55, -118345.15, -141384.09, -145139.97, 0.000, 0.000, 0.000, 14:18:09.491, 1547011089491
143, -7166.91, -7100.70, -7059.82, -7199.07, -149445.08, -118343.59, -141382.63, -145138.56, 0.042, 0.002, 1.040, 14:18:09.491, 1547011089491
144, -7165.68, -7099.34, -7058.50, -7197.69, -149443.44, -118342.00, -141380.91, -145136.75, 0.000, 0.000, 0.000, 14:18:09.491, 1547011089491
145, -7164.20, -7097.86, -7057.07, -7196.17, -149441.86, -118340.37, -141379.36, -145135.11, 0.000, 0.000, 0.000, 14:18:09.491, 1547011089491
146, -7166.48, -7100.10, -7059.17, -7198.11, -149443.89, -118342.36, -141381.31, -145136.95, 0.000, 0.000, 0.000, 14:18:09.491, 1547011089491
147, -7165.99, -7099.67, -7058.66, -7197.82, -149443.67, -118342.13, -141381.02, -145136.84, 0.000, 0.000, 0.000, 14:18:09.494, 1547011089494
148, -7166.93, -7100.63, -7059.71, -7198.87, -149444.70, -118343.16, -141382.05, -145137.97, 0.000, 0.000, 0.000, 14:18:09.496, 1547011089496
149, -7166.64, -7100.23, -7059.42, -7198.47, -149444.20, -118342.63, -141381.63, -145137.45, 0.000, 0.000, 0.000, 14:18:09.497, 1547011089497
150, -7167.53, -7101.06, -7060.22, -7199.30, -149444.81, -118343.25, -141382.28, -145137.89, 0.000, 0.000, 0.000, 14:18:09.498, 1547011089498
151, -7170.35, -7103.81, -7062.77, -7201.78, -149447.33, -118345.62, -141384.70, -145140.20, 0.000, 0.000, 0.000, 14:18:09.499, 1547011089499
152, -7167.87, -7101.42, -7060.51, -7199.54, -149445.03, -118343.36, -141382.42, -145138.05, 0.000, 0.000, 0.000, 14:18:09.499, 1547011089499
153, -7167.78, -7101.33, -7060.45, -7199.56, -149444.94, -118343.38, -141382.42, -145138.08, 0.042, -0.002, 1.036, 14:18:09.500, 1547011089500
154, -7168.49, -7101.98, -7061.07, -7200.15, -149445.48, -118343.92, -141382.95, -145138.61, 0.000, 0.000, 0.000, 14:18:09.501, 1547011089501
155, -7171.15, -7104.77, -7063.75, -7202.67, -149448.00, -118346.42, -141385.53, -145141.09, 0.000, 0.000, 0.000, 14:18:09.501, 1547011089501
156, -7174.37, -7107.88, -7066.84, -7205.62, -149450.70, -118349.17, -141388.28, -145143.73, 0.000, 0.000, 0.000, 14:18:09.502, 1547011089502
157, -7173.10, -7106.65, -7065.65, -7204.59, -149449.70, -118348.15, -141387.27, -145142.88, 0.000, 0.000, 0.000, 14:18:09.503, 1547011089503
158, -7172.72, -7106.27, -7065.41, -7204.37, -149449.28, -118347.70, -141386.88, -145142.56, 0.000, 0.000, 0.000, 14:18:09.505, 1547011089505
159, -7174.35, -7107.83, -7066.95, -7205.73, -149450.52, -118348.95, -141388.02, -145143.70, 0.000, 0.000, 0.000, 14:18:09.506, 1547011089506
160, -7172.16, -7105.60, -7064.63, -7203.43, -149448.14, -118346.65, -141385.59, -145141.20, 0.000, 0.000, 0.000, 14:18:09.506, 1547011089506
161, -7173.81, -7107.36, -7066.28, -7205.02, -149449.48, -118348.02, -141387.03, -145142.48, 0.000, 0.000, 0.000, 14:18:09.507, 1547011089507
162, -7174.42, -7107.88, -7066.91, -7205.82, -149450.42, -118348.86, -141388.02, -145143.48, 0.000, 0.000, 0.000, 14:18:09.507, 1547011089507
163, -7174.06, -7107.50, -7066.66, -7205.69, -149450.33, -118348.77, -141387.94, -145143.47, 0.046, 0.000, 1.034, 14:18:09.508, 1547011089508
164, -7173.01, -7106.38, -7065.56, -7204.48, -149449.06, -118347.59, -141386.63, -145142.14, 0.000, 0.000, 0.000, 14:18:09.508, 1547011089508
165, -7173.35, -7106.67, -7065.79, -7204.73, -149449.13, -118347.66, -141386.67, -145142.28, 0.000, 0.000, 0.000, 14:18:09.509, 1547011089509
166, -7174.62, -7107.94, -7067.02, -7205.91, -149450.06, -118348.62, -141387.67, -145143.13, 0.000, 0.000, 0.000, 14:18:09.529, 1547011089529
167, -7173.39, -7106.76, -7065.81, -7204.84, -149448.98, -118347.50, -141386.56, -145142.19, 0.000, 0.000, 0.000, 14:18:09.530, 1547011089530
168, -7172.09, -7105.66, -7064.76, -7203.88, -149448.00, -118346.41, -141385.53, -145141.19, 0.000, 0.000, 0.000, 14:18:09.530, 1547011089530
169, -7174.26, -7107.74, -7066.91, -7205.98, -149449.95, -118348.48, -141387.50, -145142.98, 0.000, 0.000, 0.000, 14:18:09.530, 1547011089530
170, -7174.80, -7108.21, -7067.33, -7206.34, -149450.33, -118348.70, -141387.83, -145143.34, 0.000, 0.000, 0.000, 14:18:09.530, 1547011089530
171, -7175.51, -7108.95, -7067.91, -7206.85, -149450.64, -118349.06, -141388.28, -145143.66, 0.000, 0.000, 0.000, 14:18:09.530, 1547011089530
172, -7174.78, -7108.08, -7067.22, -7206.22, -149450.11, -118348.44, -141387.61, -145143.19, 0.046, 0.002, 1.034, 14:18:09.530, 1547011089530
173, -7174.02, -7107.32, -7066.53, -7205.55, -149449.48, -118347.79, -141386.89, -145142.61, 0.000, 0.000, 0.000, 14:18:09.530, 1547011089530
174, -7173.28, -7106.58, -7065.77, -7204.79, -149448.50, -118346.83, -141386.05, -145141.58, 0.000, 0.000, 0.000, 14:18:09.530, 1547011089530
175, -7177.06, -7110.38, -7069.54, -7208.53, -149452.14, -118350.45, -141389.69, -145145.16, 0.000, 0.000, 0.000, 14:18:09.531, 1547011089531
176, -7178.73, -7111.94, -7071.06, -7209.89, -149453.41, -118351.74, -141390.92, -145146.44, 0.000, 0.000, 0.000, 14:18:09.531, 1547011089531
177, -7178.06, -7111.32, -7070.39, -7209.42, -149452.86, -118351.16, -141390.36, -145145.97, 0.000, 0.000, 0.000, 14:18:09.531, 1547011089531
178, -7175.29, -7108.66, -7067.78, -7206.83, -149450.17, -118348.44, -141387.63, -145143.23, 0.000, 0.000, 0.000, 14:18:09.531, 1547011089531
179, -7175.40, -7108.61, -7067.80, -7206.85, -149450.03, -118348.37, -141387.56, -145143.17, 0.000, 0.000, 0.000, 14:18:09.532, 1547011089532
180, -7179.58, -7112.84, -7071.98, -7210.96, -149453.97, -118352.30, -141391.52, -145147.06, 0.000, 0.000, 0.000, 14:18:09.532, 1547011089532
181, -7179.67, -7112.91, -7071.96, -7210.81, -149453.69, -118351.97, -141391.19, -145146.61, 0.000, 0.000, 0.000, 14:18:09.532, 1547011089532
182, -7177.46, -7110.69, -7069.83, -7208.79, -149451.52, -118349.82, -141388.95, -145144.52, 0.042, -0.002, 1.042, 14:18:09.532, 1547011089532
183, -7176.92, -7110.20, -7069.30, -7208.35, -149451.05, -118349.40, -141388.55, -145144.13, 0.000, 0.000, 0.000, 14:18:09.532, 1547011089532
184, -7176.30, -7109.53, -7068.67, -7207.61, -149450.28, -118348.55, -141387.75, -145143.28, 0.000, 0.000, 0.000, 14:18:09.532, 1547011089532
185, -7174.42, -7107.70, -7066.71, -7205.73, -149448.61, -118346.70, -141386.05, -145141.52, 0.000, 0.000, 0.000, 14:18:09.532, 1547011089532
186, -7175.38, -7108.55, -7067.46, -7206.49, -149449.25, -118347.37, -141386.72, -145142.14, 0.000, 0.000, 0.000, 14:18:09.532, 1547011089532
187, -7178.44, -7111.59, -7070.62, -7209.64, -149452.36, -118350.49, -141389.75, -145145.34, 0.000, 0.000, 0.000, 14:18:09.533, 1547011089533
188, -7177.19, -7110.49, -7069.57, -7208.68, -149451.31, -118349.45, -141388.61, -145144.28, 0.000, 0.000, 0.000, 14:18:09.533, 1547011089533
189, -7175.38, -7108.59, -7067.62, -7206.76, -149449.30, -118347.41, -141386.61, -145142.19, 0.000, 0.000, 0.000, 14:18:09.533, 1547011089533
190, -7175.60, -7108.68, -7067.76, -7206.78, -149449.22, -118347.32, -141386.48, -145142.08, 0.000, 0.000, 0.000, 14:18:09.533, 1547011089533
191, -7176.97, -7109.96, -7068.90, -7207.77, -149450.11, -118348.28, -141387.45, -145142.83, 0.000, 0.000, 0.000, 14:18:09.533, 1547011089533
192, -7177.28, -7110.31, -7069.28, -7208.24, -149450.53, -118348.80, -141387.94, -145143.33, 0.046, 0.002, 1.044, 14:18:09.533, 1547011089533
193, -7175.78, -7108.73, -7067.78, -7206.96, -149449.14, -118347.25, -141386.38, -145141.83, 0.000, 0.000, 0.000, 14:18:09.533, 1547011089533
194, -7175.71, -7108.68, -7067.71, -7206.85, -149448.88, -118346.98, -141386.09, -145141.58, 0.000, 0.000, 0.000, 14:18:09.533, 1547011089533
195, -7177.23, -7110.18, -7069.21, -7208.26, -149450.17, -118348.26, -141387.50, -145142.88, 0.000, 0.000, 0.000, 14:18:09.533, 1547011089533
196, -7180.12, -7112.97, -7071.85, -7210.81, -149452.61, -118350.63, -141389.86, -145145.19, 0.000, 0.000, 0.000, 14:18:09.534, 1547011089534
197, -7179.96, -7112.70, -7071.76, -7210.67, -149452.59, -118350.49, -141389.70, -145145.09, 0.000, 0.000, 0.000, 14:18:09.534, 1547011089534
198, -7178.02, -7110.78, -7069.90, -7209.00, -149450.73, -118348.73, -141387.88, -145143.27, 0.000, 0.000, 0.000, 14:18:09.534, 1547011089534
199, -7178.51, -7111.36, -7070.55, -7209.51, -149451.11, -118349.15, -141388.25, -145143.70, 0.000, 0.000, 0.000, 14:18:09.534, 1547011089534
200, -7178.11, -7110.92, -7070.04, -7208.88, -149450.38, -118348.37, -141387.50, -145142.86, 0.000, 0.000, 0.000, 14:18:09.534, 1547011089534
201, -7178.17, -7110.96, -7069.88, -7208.64, -149450.00, -118347.95, -141387.25, -145142.41, 0.000, 0.000, 0.000, 14:18:09.534, 1547011089534
202, -7179.51, -7112.32, -7071.22, -7210.16, -149451.53, -118349.40, -141388.75, -145143.97, 0.048, 0.006, 1.040, 14:18:09.534, 1547011089534
203, -7180.03, -7112.93, -7071.94, -7210.99, -149452.30, -118350.07, -141389.47, -145144.78, 0.000, 0.000, 0.000, 14:18:09.535, 1547011089535
204, -7179.96, -7112.82, -7071.85, -7210.78, -149452.05, -118349.82, -141389.22, -145144.42, 0.000, 0.000, 0.000, 14:18:09.535, 1547011089535
205, -7179.58, -7112.37, -7071.33, -7210.25, -149451.45, -118349.27, -141388.50, -145143.70, 0.000, 0.000, 0.000, 14:18:09.535, 1547011089535
206, -7181.55, -7114.31, -7073.14, -7211.86, -149452.94, -118350.74, -141390.02, -145145.08, 0.000, 0.000, 0.000, 14:18:09.536, 1547011089536
207, -7180.30, -7113.04, -7071.85, -7210.69, -149451.72, -118349.55, -141388.86, -145143.97, 0.000, 0.000, 0.000, 14:18:09.539, 1547011089539
208, -7180.07, -7112.75, -7071.56, -7210.49, -149451.61, -118349.38, -141388.66, -145143.94, 0.000, 0.000, 0.000, 14:18:09.540, 1547011089540
209, -7180.81, -7113.49, -7072.29, -7211.21, -149452.23, -118350.00, -141389.23, -145144.48, 0.000, 0.000, 0.000, 14:18:09.540, 1547011089540
210, -7181.26, -7113.96, -7072.67, -7211.59, -149452.41, -118350.18, -141389.38, -145144.64, 0.000, 0.000, 0.000, 14:18:09.961, 1547011089961
211, -7180.99, -7113.64, -7072.23, -7211.03, -149451.73, -118349.48, -141388.80, -145143.81, 0.000, 0.000, 0.000, 14:18:09.963, 1547011089963
212, -7181.95, -7114.69, -7073.25, -7212.10, -149452.72, -118350.52, -141389.83, -145144.95, 0.052, 0.004, 1.106, 14:18:09.973, 1547011089973
213, -7181.39, -7114.07, -7072.78, -7211.72, -149452.39, -118350.09, -141389.39, -145144.72, 0.000, 0.000, 0.000, 14:18:09.978, 1547011089978
214, -7181.21, -7113.87, -7072.81, -7211.37, -149452.09, -118349.73, -141389.06, -145144.28, 0.000, 0.000, 0.000, 14:18:09.979, 1547011089979
215, -7181.53, -7114.16, -7073.59, -7211.63, -149452.28, -118349.94, -141389.33, -145144.44, 0.000, 0.000, 0.000, 14:18:09.980, 1547011089980
216, -7182.11, -7114.49, -7074.60, -7211.95, -149452.56, -118350.23, -141389.69, -145144.63, 0.000, 0.000, 0.000, 14:18:09.981, 1547011089981
217, -7181.77, -7112.68, -7073.32, -7211.90, -149452.61, -118350.27, -141389.94, -145145.05, 0.000, 0.000, 0.000, 14:18:09.982, 1547011089982
218, -7180.48, -7110.60, -7071.69, -7211.03, -149451.73, -118349.48, -141389.28, -145144.44, 0.000, 0.000, 0.000, 14:18:09.983, 1547011089983
219, -7179.65, -7109.80, -7071.11, -7210.11, -149451.00, -118348.66, -141388.59, -145143.70, 0.000, 0.000, 0.000, 14:18:09.984, 1547011089984
220, -7178.46, -7108.57, -7070.10, -7208.71, -149449.44, -118347.09, -141387.05, -145142.08, 0.000, 0.000, 0.000, 14:18:09.986, 1547011089986
221, -7181.97, -7112.08, -7073.48, -7211.81, -149452.28, -118349.95, -141389.78, -145144.59, -0.002, 0.074, 0.980, 14:18:09.987, 1547011089987
222, -7183.78, -7113.96, -7075.49, -7213.85, -149454.28, -118352.08, -141391.88, -145146.95, 0.000, 0.000, 0.000, 14:18:09.987, 1547011089987
223, -7181.03, -7111.25, -7072.78, -7211.41, -149451.83, -118349.64, -141389.42, -145144.73, 0.000, 0.000, 0.000, 14:18:09.987, 1547011089987
224, -7180.30, -7110.54, -7071.96, -7210.63, -149451.06, -118348.77, -141388.59, -145143.89, 0.000, 0.000, 0.000, 14:18:09.989, 1547011089989
225, -7180.30, -7110.51, -7071.67, -7210.61, -149450.95, -118348.68, -141388.45, -145143.70, 0.000, 0.000, 0.000, 14:18:09.990, 1547011089990
226, -7183.34, -7113.53, -7074.48, -7213.18, -149453.48, -118351.23, -141391.00, -145146.09, 0.000, 0.000, 0.000, 14:18:09.990, 1547011089990
227, -7181.12, -7111.59, -7072.67, -7211.01, -149451.48, -118349.15, -141389.06, -145144.20, 0.000, 0.000, 0.000, 14:18:09.990, 1547011089990
228, -7180.03, -7110.74, -7072.56, -7210.16, -149450.73, -118348.33, -141388.33, -145143.66, 0.000, 0.000, 0.000, 14:18:09.991, 1547011089991
229, -7180.59, -7111.25, -7073.05, -7210.58, -149451.00, -118348.77, -141388.69, -145144.05, 0.000, 0.000, 0.000, 14:18:09.991, 1547011089991
230, -7182.35, -7113.04, -7074.75, -7212.17, -149452.56, -118350.18, -141390.17, -145145.45, 0.000, 0.000, 0.000, 14:18:09.991, 1547011089991
231, -7184.88, -7115.54, -7077.10, -7214.23, -149454.58, -118352.13, -141391.98, -145147.00, -0.028, 0.054, 0.954, 14:18:09.991, 1547011089991
232, -7185.91, -7116.50, -7078.08, -7215.41, -149455.81, -118353.35, -141393.27, -145148.38, 0.000, 0.000, 0.000, 14:18:09.992, 1547011089992
233, -7184.66, -7115.30, -7077.10, -7214.61, -149455.14, -118352.66, -141392.70, -145148.02, 0.000, 0.000, 0.000, 14:18:09.992, 1547011089992
234, -7183.72, -7114.40, -7076.09, -7213.58, -149454.02, -118351.56, -141391.56, -145146.91, 0.000, 0.000, 0.000, 14:18:09.992, 1547011089992
235, -7183.22, -7113.82, -7075.40, -7212.93, -149453.19, -118350.72, -141390.63, -145145.92, 0.000, 0.000, 0.000, 14:18:09.992, 1547011089992
236, -7185.57, -7115.97, -7077.25, -7214.56, -149454.64, -118352.23, -141392.02, -145147.11, 0.000, 0.000, 0.000, 14:18:09.992, 1547011089992
237, -7182.98, -7113.35, -7074.73, -7212.10, -149452.13, -118349.84, -141389.67, -145144.88, 0.000, 0.000, 0.000, 14:18:09.992, 1547011089992
238, -7179.98, -7110.51, -7072.11, -7209.60, -149449.75, -118347.48, -141387.39, -145142.81, 0.000, 0.000, 0.000, 14:18:09.992, 1547011089992
239, -7179.20, -7109.75, -7071.35, -7208.79, -149449.03, -118346.65, -141386.56, -145141.94, 0.000, 0.000, 0.000, 14:18:09.992, 1547011089992
240, -7179.13, -7109.55, -7071.06, -7208.46, -149448.67, -118346.20, -141386.11, -145141.45, 0.000, 0.000, 0.000, 14:18:09.993, 1547011089993
241, -7179.92, -7110.29, -7071.62, -7208.82, -149448.83, -118346.45, -141386.20, -145141.47, -0.006, -0.014, 0.890, 14:18:09.993, 1547011089993
242, -7178.51, -7108.95, -7070.88, -7207.77, -149447.80, -118345.46, -141385.31, -145140.64, 0.000, 0.000, 0.000, 14:18:09.993, 1547011089993
243, -7176.70, -7106.76, -7070.17, -7206.38, -149446.42, -118343.99, -141383.94, -145139.61, 0.000, 0.000, 0.000, 14:18:09.993, 1547011089993
244, -7179.16, -7109.29, -7072.94, -7208.91, -149448.72, -118346.25, -141386.05, -145141.97, 0.000, 0.000, 0.000, 14:18:09.993, 1547011089993
245, -7181.53, -7112.91, -7076.00, -7211.01, -149450.70, -118348.26, -141388.08, -145143.84, 0.000, 0.000, 0.000, 14:18:09.993, 1547011089993
246, -7185.57, -7117.18, -7079.87, -7214.03, -149454.47, -118351.66, -141391.61, -145147.23, 0.000, 0.000, 0.000, 14:18:09.993, 1547011089993
247, -7184.61, -7116.71, -7078.91, -7213.44, -149453.45, -118350.78, -141390.78, -145146.55, 0.000, 0.000, 0.000, 14:18:09.993, 1547011089993
248, -7184.50, -7117.11, -7079.51, -7214.07, -149453.61, -118351.23, -141391.19, -145147.06, 0.000, 0.000, 0.000, 14:18:09.994, 1547011089994
249, -7184.34, -7117.09, -7079.62, -7214.05, -149453.41, -118351.08, -141391.00, -145146.91, 0.000, 0.000, 0.000, 14:18:09.994, 1547011089994
250, -7185.55, -7118.23, -7080.67, -7215.03, -149454.52, -118352.04, -141392.03, -145147.75, 0.000, 0.000, 0.000, 14:18:09.994, 1547011089994
251, -7186.38, -7119.08, -7081.28, -7215.52, -149454.91, -118352.30, -141392.22, -145147.78, -0.022, 0.084, 0.882, 14:18:09.994, 1547011089994
252, -7185.55, -7118.58, -7080.50, -7215.10, -149454.06, -118351.61, -141391.36, -145147.16, 0.000, 0.000, 0.000, 14:18:09.994, 1547011089994
253, -7186.76, -7119.61, -7082.08, -7216.39, -149455.77, -118353.20, -141393.08, -145148.94, 0.000, 0.000, 0.000, 14:18:09.994, 1547011089994
254, -7187.90, -7120.66, -7083.31, -7217.51, -149456.81, -118354.18, -141394.05, -145149.92, 0.000, 0.000, 0.000, 14:18:09.994, 1547011089994
255, -7188.48, -7121.18, -7083.87, -7218.05, -149457.14, -118354.54, -141394.42, -145150.23, 0.000, 0.000, 0.000, 14:18:09.994, 1547011089994
0, -7190.42, -7123.08, -7085.59, -7219.48, -149458.48, -118355.92, -141395.70, -145151.33, 0.000, 0.000, 0.000, 14:18:09.994, 1547011089994
1, -7189.13, -7122.03, -7084.54, -7218.45, -149457.39, -118354.80, -141394.58, -145150.34, 0.000, 0.000, 0.000, 14:18:09.995, 1547011089995
2, -7187.47, -7120.39, -7083.25, -7217.24, -149456.19, -118353.66, -141393.59, -145149.42, 0.000, 0.000, 0.000, 14:18:09.995, 1547011089995
3, -7186.80, -7119.70, -7082.28, -7216.51, -149455.30, -118352.75, -141392.73, -145148.38, 0.000, 0.000, 0.000, 14:18:09.995, 1547011089995
4, -7187.85, -7120.73, -7083.07, -7217.29, -149455.98, -118353.47, -141393.31, -145148.95, 0.000, 0.000, 0.000, 14:18:09.995, 1547011089995
5, -7189.24, -7122.09, -7083.85, -7218.14, -149456.81, -118354.18, -141393.91, -145149.47, 0.048, 0.054, 0.992, 14:18:09.995, 1547011089995
6, -7188.52, -7121.24, -7082.80, -7217.33, -149456.00, -118353.49, -141393.23, -145148.84, 0.000, 0.000, 0.000, 14:18:09.995, 1547011089995
7, -7186.09, -7118.83, -7080.52, -7215.19, -149454.06, -118351.50, -141391.39, -145147.13, 0.000, 0.000, 0.000, 14:18:09.995, 1547011089995
8, -7188.46, -7121.06, -7082.84, -7217.38, -149456.55, -118353.76, -141393.80, -145149.27, 0.000, 0.000, 0.000, 14:18:09.995, 1547011089995
9, -7188.23, -7120.91, -7082.46, -7217.06, -149456.00, -118353.17, -141393.23, -145148.72, 0.000, 0.000, 0.000, 14:18:09.996, 1547011089996
10, -7190.76, -7123.48, -7084.81, -7219.19, -149457.86, -118355.19, -141394.94, -145150.38, 0.000, 0.000, 0.000, 14:18:09.996, 1547011089996
11, -7193.13, -7125.80, -7087.36, -7221.58, -149460.33, -118357.53, -141397.48, -145152.83, 0.000, 0.000, 0.000, 14:18:09.996, 1547011089996
12, -7191.54, -7124.10, -7086.22, -7220.42, -149459.05, -118356.30, -141396.38, -145151.86, 0.000, 0.000, 0.000, 14:18:09.996, 1547011089996
13, -7190.82, -7123.32, -7085.59, -7219.55, -149458.05, -118355.26, -141395.25, -145150.72, 0.000, 0.000, 0.000, 14:18:09.996, 1547011089996
14, -7189.89, -7122.38, -7084.56, -7218.47, -149456.88, -118354.02, -141393.95, -145149.34, 0.028, 0.052, 1.012, 14:18:09.996, 1547011089996
15, -7194.33, -7126.76, -7088.70, -7222.30, -149460.59, -118357.65, -141397.52, -145152.69, 0.000, 0.000, 0.000, 14:18:09.996, 1547011089996
16, -7194.69, -7127.21, -7089.17, -7222.79, -149460.95, -118358.16, -141397.88, -145153.16, 0.000, 0.000, 0.000, 14:18:09.997, 1547011089997
17, -7190.15, -7122.74, -7084.97, -7218.85, -149456.95, -118354.16, -141394.11, -145149.55, 0.000, 0.000, 0.000, 14:18:09.997, 1547011089997
18, -7190.38, -7122.96, -7085.15, -7219.10, -149457.02, -118354.13, -141394.16, -145149.56, 0.000, 0.000, 0.000, 14:18:09.997, 1547011089997
19, -7189.86, -7122.54, -7084.54, -7218.43, -149456.30, -118353.29, -141393.23, -145148.61, 0.000, 0.000, 0.000, 14:18:09.997, 1547011089997
20, -7193.04, -7125.67, -7087.22, -7220.93, -149458.48, -118355.57, -141395.25, -145150.34, 0.000, 0.000, 0.000, 14:18:09.997, 1547011089997
21, -7194.04, -7126.59, -7088.21, -7221.98, -149459.42, -118356.59, -141396.30, -145151.44, 0.000, 0.000, 0.000, 14:18:09.997, 1547011089997
22, -7191.27, -7123.93, -7085.79, -7219.77, -149457.33, -118354.47, -141394.30, -145149.77, 0.000, 0.000, 0.000, 14:18:09.997, 1547011089997
23, -7190.13, -7122.79, -7084.63, -7218.65, -149455.92, -118353.04, -141392.91, -145148.30, 0.000, 0.000, 0.000, 14:18:09.997, 1547011089997
24, -7189.68, -7122.36, -7083.98, -7218.07, -149455.14, -118352.23, -141392.08, -145147.27, 0.036, 0.040, 1.024, 14:18:09.998, 1547011089998
25, -7196.05, -7128.69, -7089.77, -7223.77, -149460.67, -118357.71, -141397.28, -145152.09, 0.000, 0.000, 0.000, 14:18:09.998, 1547011089998
26, -7196.61, -7129.25, -7090.40, -7224.51, -149461.23, -118358.41, -141397.83, -145152.83, 0.000, 0.000, 0.000, 14:18:09.998, 1547011089998
27, -7192.88, -7125.71, -7087.27, -7221.58, -149458.36, -118355.48, -141395.14, -145150.34, 0.000, 0.000, 0.000, 14:18:09.998, 1547011089998
28, -7192.59, -7125.53, -7086.89, -7221.31, -149457.95, -118354.96, -141394.66, -145149.86, 0.000, 0.000, 0.000, 14:18:09.998, 1547011089998
29, -7193.84, -7126.65, -7087.94, -7222.30, -149458.75, -118355.81, -141395.36, -145150.45, 0.000, 0.000, 0.000, 14:18:09.998, 1547011089998
30, -7199.52, -7132.13, -7093.10, -7227.26, -149463.52, -118360.44, -141399.70, -145154.48, 0.000, 0.000, 0.000, 14:18:09.998, 1547011089998
31, -7200.26, -7133.02, -7093.97, -7228.24, -149464.28, -118361.36, -141400.69, -145155.48, 0.000, 0.000, 0.000, 14:18:09.998, 1547011089998
32, -7195.29, -7128.17, -7089.62, -7224.02, -149459.94, -118357.09, -141396.64, -145151.80, 0.000, 0.000, 0.000, 14:18:09.999, 1547011089999
33, -7194.27, -7127.14, -7088.61, -7223.10, -149458.88, -118355.95, -141395.36, -145150.50, 0.000, 0.000, 0.000, 14:18:09.999, 1547011089999
34, -7194.89, -7127.79, -7089.17, -7223.68, -149459.20, -118356.26, -141395.61, -145150.50, 0.038, 0.040, 1.026, 14:18:10.000, 1547011090000
35, -7199.85, -7132.87, -7093.84, -7228.11, -149463.55, -118360.57, -141399.70, -145154.09, 0.000, 0.000, 0.000, 14:18:10.000, 1547011090000
36, -7198.18, -7131.23, -7092.25, -7226.48, -149461.84, -118358.90, -141398.11, -145152.72, 0.000, 0.000, 0.000, 14:18:10.000, 1547011090000
37, -7192.55, -7125.47, -7087.00, -7221.40, -149456.72, -118353.73, -141393.31, -145148.17, 0.000, 0.000, 0.000, 14:18:10.001, 1547011090001
38, -7191.58, -7124.46, -7086.02, -7220.48, -149455.63, -118352.57, -141392.14, -145146.97, 0.000, 0.000, 0.000, 14:18:10.001, 1547011090001
39, -7193.13, -7126.09, -7087.45, -7221.98, -149456.97, -118353.78, -141393.27, -145147.95, 0.000, 0.000, 0.000, 14:18:10.001, 1547011090001
40, -7201.11, -7134.25, -7095.20, -7229.56, -149464.39, -118361.24, -141400.30, -145154.48, 0.000, 0.000, 0.000, 14:18:10.001, 1547011090001
41, -7202.38, -7135.59, -7096.68, -7231.15, -149465.73, -118362.59, -141401.73, -145155.94, 0.000, 0.000, 0.000, 14:18:10.002, 1547011090002
42, -7197.53, -7130.72, -7092.19, -7226.83, -149461.17, -118358.09, -141397.48, -145152.16, 0.000, 0.000, 0.000, 14:18:10.002, 1547011090002
43, -7197.93, -7131.17, -7092.63, -7227.26, -149461.38, -118358.34, -141397.78, -145152.20, 0.000, 0.000, 0.000, 14:18:10.003, 1547011090003
44, -7201.98, -7135.15, -7096.57, -7231.28, -149465.17, -118362.09, -141401.36, -145155.58, 0.038, 0.040, 1.032, 14:18:10.004, 1547011090004
45, -7208.57, -7141.96, -7102.96, -7237.65, -149471.30, -118368.13, -141406.89, -145160.52, 0.000, 0.000, 0.000, 14:18:10.006, 1547011090006
46, -7207.34, -7140.80, -7101.91, -7236.53, -149470.16, -118366.92, -141405.67, -145159.36, 0.000, 0.000, 0.000, 14:18:10.006, 1547011090006
47, -7199.70, -7133.09, -7094.58, -7229.29, -149462.63, -118359.45, -141398.45, -145152.64, 0.000, 0.000, 0.000, 14:18:10.007, 1547011090007
48, -7197.02, -7130.52, -7092.12, -7226.79, -149460.00, -118356.87, -141395.66, -145149.75, 0.000, 0.000, 0.000, 14:18:10.007, 1547011090007
49, -7198.25, -7132.13, -7093.57, -7228.26, -149461.38, -118358.00, -141396.59, -145150.41, 0.000, 0.000, 0.000, 14:18:10.007, 1547011090007
50, -7207.90, -7142.19, -7103.43, -7238.14, -149470.83, -118367.15, -141405.00, -145157.95, 0.000, 0.000, 0.000, 14:18:10.007, 1547011090007
51, -7207.99, -7142.41, -7103.72, -7238.50, -149471.00, -118367.30, -141405.02, -145157.75, 0.000, 0.000, 0.000, 14:18:10.007, 1547011090007
52, -7201.96, -7136.26, -7097.89, -7232.82, -149465.00, -118361.42, -141399.61, -145152.80, 0.000, 0.000, 0.000, 14:18:10.007, 1547011090007
53, -7204.06, -7138.61, -7100.41, -7235.30, -149467.41, -118363.50, -141401.48, -145154.48, 0.000, 0.000, 0.000, 14:18:10.007, 1547011090007
54, -7205.82, -7140.87, -7102.83, -7237.81, -149469.69, -118365.31, -141402.81, -145155.23, 0.040, 0.040, 1.030, 14:18:10.007, 1547011090007
55, -7218.63, -7154.95, -7116.95, -7252.02, -149483.28, -118378.08, -141414.14, -145165.03, 0.000, 0.000, 0.000, 14:18:10.009, 1547011090009
56, -7220.51, -7157.74, -7119.90, -7254.95, -149485.72, -118380.06, -141415.44, -145165.92, 0.000, 0.000, 0.000, 14:18:10.009, 1547011090009
57, -7213.51, -7150.75, -7113.26, -7248.36, -149478.72, -118372.69, -141408.39, -145159.53, 0.000, 0.000, 0.000, 14:18:10.009, 1547011090009
58, -7214.29, -7152.83, -7116.04, -7250.88, -149480.06, -118372.78, -141407.55, -145157.95, 0.000, 0.000, 0.000, 14:18:10.009, 1547011090009
59, -7217.91, -7158.95, -7122.99, -7257.14, -149484.58, -118375.37, -141408.64, -145158.06, 0.000, 0.000, 0.000, 14:18:10.010, 1547011090010
60, -7142.90, -7087.87, -7040.96, -7189.01, -149499.34, -118386.93, -141416.67, -145163.98, 0.000, 0.000, 0.000, 14:18:10.010, 1547011090010
61, -3945.22, -3813.81, -3313.47, -4019.76, -149495.44, -118405.32, -141419.91, -145169.69, 0.000, 0.000, 0.000, 14:18:10.010, 1547011090010
62, -2157.97, -1848.89, -240.88, -1840.91, -149472.30, -118410.13, -141413.09, -145167.80, 0.000, 0.000, 0.000, 14:18:10.010, 1547011090010
63, 277.12, 654.37, 4702.25, 2713.99, -146993.34, -118425.77, -141422.48, -145177.66, 0.020, 0.060, 1.016, 14:18:10.010, 1547011090010
64, 9114.91, 9313.66, 7692.53, -5563.15, -111567.77, -118553.78, -141488.81, -145242.56, 0.000, 0.000, 0.000, 14:18:10.011, 1547011090011
65, 15369.35, 15375.74, 10416.11, -21276.51, -55614.43, -118774.51, -141603.48, -145354.89, 0.000, 0.000, 0.000, 14:18:10.012, 1547011090012
66, 18927.57, 18932.11, 18589.90, -20025.87, -15912.52, -117575.18, -141682.89, -145433.77, 0.000, 0.000, 0.000, 14:18:10.012, 1547011090012
67, 21962.91, 21966.98, 21962.13, -8923.26, 18447.63, -94511.73, -141739.02, -145500.83, 0.000, 0.000, 0.000, 14:18:10.013, 1547011090013
68, 25245.80, 25249.65, 25246.72, 8832.31, 25300.56, -57355.16, -141793.67, -145573.42, 0.000, 0.000, 0.000, 14:18:10.017, 1547011090017
69, 27338.26, 27341.97, 27348.19, 26184.42, 27396.38, -30690.49, -141831.45, -145620.88, 0.000, 0.000, 0.000, 14:18:10.018, 1547011090018
70, 29032.86, 29036.39, 29044.50, 29091.33, 29092.34, 14021.20, -141864.64, -145658.73, 0.000, 0.000, 0.000, 14:18:10.019, 1547011090019
71, 30006.61, 30009.99, 30017.92, 30065.26, 30068.77, 29991.50, -141882.39, -145678.97, 0.000, 0.000, 0.000, 14:18:10.020, 1547011090020
